File: Auto_Polymerization/Data/UV_VIS_Spectra/MRG-061-G- spectra_G1_G2_after_aminolysis/MRG-061-G-1_after_aminolysis_spectrum_2025-06-20_14-42-59_absorbance.txt
# Wavelength	Absorbance
197.78 -0.189664
200.433 0.944142
203.089 3.034628
205.748 0.429292
208.408 0.356970
211.072 3.104487
213.738 0.003608
216.406 2.902003
219.077 -0.115171
221.75 0.017717
224.426 -0.044097
227.105 2.294466
229.786 -0.559526
232.469 -0.654800
235.155 0.307902
237.843 1.851258
240.534 -2.835691
243.227 2.710117
245.923 0.350346
248.621 0.136477
251.321 -0.465547
254.024 -0.047906
256.73 0.246841
259.438 2.975891
262.148 2.989895
264.86 -0.299612
267.575 -0.142668
270.293 -2.514548
273.013 1.294191
275.735 -3.159567
278.46 2.935507
281.187 0.000000
283.917 0.299261
286.648 -0.193022
289.383 0.344034
292.119 3.059185
294.858 0.030669
297.599 2.269513
300.343 0.040764
303.089 2.357935
305.838 0.302947
308.588 3.242293
311.341 0.100270
314.097 2.599883
316.854 0.479930
319.614 3.245019
322.377 0.307242
325.141 3.384174
327.908 3.508395
330.677 0.856609
333.449 0.819544
336.223 3.666237
338.999 0.641433
341.777 3.818094
344.558 3.886829
347.341 1.554771
350.126 0.938368
352.913 2.855464
355.703 1.212573
358.495 1.028537
361.289 1.041708
364.085 1.057577
366.884 4.063634
369.685 4.136974
372.488 1.152834
375.293 1.360161
378.1 1.366775
380.91 1.331262
383.722 1.065110
386.536 1.830393
389.352 4.400383
392.171 1.571126
394.991 1.675221
397.814 2.545346
400.639 1.148081
403.466 1.560140
406.295 4.555469
409.127 1.902964
411.961 1.561582
414.796 1.170823
417.634 1.435969
420.474 1.329167
423.316 0.924833
426.161 0.782029
429.007 0.817223
431.855 0.624640
434.706 0.553516
437.559 0.496718
440.413 0.475527
443.27 0.451563
446.129 0.402543
448.99 0.341912
451.853 0.338356
454.719 0.336243
457.586 0.299573
460.455 0.259157
463.327 0.279934
466.2 0.232412
469.076 0.264368
471.953 0.236089
474.833 0.293360
477.714 0.259490
480.598 0.261425
483.484 0.274957
486.372 0.166533
489.261 0.219207
492.153 0.242784
495.047 0.240561
497.942 0.237670
500.84 0.225479
503.74 0.270290
506.641 0.251759
509.545 0.230937
512.451 0.230672
515.358 0.248781
518.268 0.236577
521.179 0.210634
524.093 0.276682
527.008 0.200975
529.925 0.266051
532.845 0.267433
535.766 0.226324
538.689 0.247163
541.614 0.228219
544.541 0.245560
547.47 0.216137
550.401 0.194862
553.333 0.253217
556.268 0.216915
559.204 0.204591
562.143 0.201678
565.083 0.207453
568.025 0.211527
570.969 0.251484
573.915 0.229433
576.863 0.241956
579.812 0.222858
582.764 0.181944
585.717 0.211082
588.672 0.204607
591.629 0.226380
594.587 0.206230
597.548 0.229237
600.51 0.215929
603.475 0.205153
606.441 0.178223
609.409 0.189386
612.378 0.195675
615.35 0.220320
618.323 0.177631
621.298 0.173906
624.274 0.201273
627.253 0.220840
630.233 0.203451
633.215 0.186895
636.199 0.199955
639.185 0.170544
642.172 0.180098
645.161 0.210197
648.152 0.221307
651.144 0.198766
654.139 0.211934
657.135 0.106170
660.133 0.084171
663.132 0.190270
666.133 0.224368
669.136 0.188119
672.14 0.236297
675.147 0.214844
678.154 0.203783
681.164 0.231555
684.175 0.207383
687.188 0.192899
690.203 0.189401
693.219 0.193448
696.237 0.192500
699.257 0.193819
702.278 0.185204
705.301 0.191230
708.325 0.164244
711.351 0.130344
714.379 0.161127
717.409 0.172141
720.439 0.167986
723.472 0.168267
726.506 0.216012
729.542 0.183378
732.58 0.216984
735.619 0.203181
738.659 0.185300
741.701 0.176233
744.745 0.201627
747.79 0.152770
750.837 0.151183
753.886 0.199964
756.936 0.195610
759.987 0.192788
763.04 0.195146
766.095 0.161221
769.151 0.199581
772.209 0.155225
775.268 0.162166
778.329 0.190198
781.391 0.201081
784.455 0.173574
787.52 0.203174
790.587 0.159156
793.655 0.255847
796.725 0.151094
799.796 0.152009
802.869 0.149096
805.943 0.217934
809.019 0.206891
812.096 0.178983
815.174 0.115933
818.254 0.157531
821.336 0.256735
824.419 0.144258
827.503 0.176091
830.589 0.108229
833.676 0.209011
836.765 0.104479
839.855 0.140038
842.946 0.047473
846.039 0.259799
849.133 0.127931
852.229 0.202460
855.326 0.209334
858.424 0.101680
861.524 0.263547
864.625 0.177073
867.728 0.137931
870.832 0.299609
873.937 0.154813
877.044 0.023129
880.152 0.241724
883.261 0.041306
886.372 0.072054
889.484 -0.030393
892.598 0.375467
895.712 0.387007
898.828 0.283099
901.946 0.262594
905.064 0.331086
908.184 -0.078747
911.306 0.191739
914.428 -0.089354
917.552 0.179499
920.677 0.081207
923.804 0.511700
926.931 0.064672
930.06 0.260348
933.191 -0.124632
936.322 -0.071986
939.455 0.387148
942.589 -0.008172
945.724 0.481677
948.861 0.099452
951.998 -0.156209
955.137 -0.454581
958.278 -0.439274
961.419 -0.347222
964.562 0.489425
967.705 -0.013549
970.85 0.985841
973.997 -0.218495
977.144 0.026730
980.293 -0.295244
983.442 -0.655336
986.593 -0.270762
989.746 -0.259964
992.899 0.102859
996.053 0.102859
999.209 -3.308351
1002.37 -0.790345
1005.52 0.470064
1008.68 -0.420975
1011.84 2.872156
1015 -2.252853
1018.17 0.195895
1021.33 -3.140194
1023.03 2.812913