File: Auto_Polymerization/Data/UV_VIS_Spectra/MRG-061-G- spectra_G1_G2_after_aminolysis/MRG-061-G-2_after_aminolysis_spectrum_2025-06-20_14-49-03_absorbance.txt
# Wavelength	Absorbance
197.78 2.878522
200.433 3.008600
203.089 -0.153174
205.748 2.682145
208.408 2.970812
211.072 3.104487
213.738 0.512670
216.406 2.902003
219.077 2.990339
221.75 3.183555
224.426 2.719331
227.105 2.294466
229.786 2.791691
232.469 1.959041
235.155 0.633878
237.843 1.851258
240.534 -2.328380
243.227 0.897204
245.923 -0.111546
248.621 0.554355
251.321 0.329856
254.024 0.431830
256.73 0.398350
259.438 0.203569
262.148 0.073967
264.86 2.662758
267.575 -0.324838
270.293 -2.328380
273.013 0.042704
275.735 -2.926857
278.46 2.935507
281.187 -2.604226
283.917 -0.355909
286.648 2.940516
289.383 3.074816
292.119 3.059185
294.858 0.318180
297.599 0.456600
300.343 3.270446
303.089 -0.875061
305.838 0.728367
308.588 3.242293
311.341 0.327963
314.097 2.599883
316.854 0.591345
319.614 3.245019
322.377 0.657673
325.141 3.384174
327.908 0.952093
330.677 1.133057
333.449 3.655235
336.223 0.909601
338.999 1.333190
341.777 0.777096
344.558 3.886829
347.341 3.899164
350.126 1.306345
352.913 3.896857
355.703 0.994498
358.495 1.355769
361.289 2.680414
364.085 1.789498
366.884 0.968116
369.685 4.136974
372.488 1.336328
375.293 4.182329
378.1 1.696963
380.91 4.341138
383.722 1.062193
386.536 1.403490
389.352 4.400383
392.171 1.251069
394.991 1.652108
397.814 1.564506
400.639 1.934084
403.466 1.490294
406.295 2.272168
409.127 1.414270
411.961 1.306155
414.796 1.239084
417.634 1.137844
420.474 1.147057
423.316 1.026331
426.161 0.778047
429.007 0.800051
431.855 0.648603
434.706 0.643261
437.559 0.622185
440.413 0.522016
443.27 0.431448
446.129 0.443751
448.99 0.387515
451.853 0.385443
454.719 0.281991
457.586 0.302155
460.455 0.276490
463.327 0.294487
466.2 0.251685
469.076 0.245420
471.953 0.232188
474.833 0.222665
477.714 0.204515
480.598 0.232740
483.484 0.240337
486.372 0.162045
489.261 0.216878
492.153 0.243362
495.047 0.192658
497.942 0.202023
500.84 0.205097
503.74 0.230241
506.641 0.213101
509.545 0.226120
512.451 0.208150
515.358 0.207050
518.268 0.188562
521.179 0.222789
524.093 0.226083
527.008 0.173813
529.925 0.235402
532.845 0.204734
535.766 0.188597
538.689 0.173799
541.614 0.211973
544.541 0.186609
547.47 0.204800
550.401 0.175012
553.333 0.217739
556.268 0.176856
559.204 0.186386
562.143 0.176586
565.083 0.185883
568.025 0.184372
570.969 0.201847
573.915 0.206408
576.863 0.218160
579.812 0.194299
582.764 0.143903
585.717 0.177451
588.672 0.174660
591.629 0.197676
594.587 0.177365
597.548 0.181894
600.51 0.176873
603.475 0.200898
606.441 0.135098
609.409 0.168224
612.378 0.160501
615.35 0.183857
618.323 0.153759
621.298 0.142829
624.274 0.162559
627.253 0.157984
630.233 0.165250
633.215 0.156240
636.199 0.160280
639.185 0.149308
642.172 0.119457
645.161 0.133193
648.152 0.200132
651.144 0.162394
654.139 0.167701
657.135 0.069698
660.133 0.070863
663.132 0.146469
666.133 0.186639
669.136 0.171572
672.14 0.205224
675.147 0.126479
678.154 0.128335
681.164 0.158006
684.175 0.154173
687.188 0.143285
690.203 0.136075
693.219 0.165662
696.237 0.156581
699.257 0.150855
702.278 0.161866
705.301 0.177558
708.325 0.159733
711.351 0.150013
714.379 0.125831
717.409 0.148599
720.439 0.166583
723.472 0.122567
726.506 0.149008
729.542 0.122989
732.58 0.166021
735.619 0.134475
738.659 0.122787
741.701 0.134154
744.745 0.118727
747.79 0.103052
750.837 0.119146
753.886 0.161756
756.936 0.123325
759.987 0.144923
763.04 0.099408
766.095 0.114572
769.151 0.123709
772.209 0.138436
775.268 0.148687
778.329 0.133143
781.391 0.163195
784.455 0.112891
787.52 0.182340
790.587 0.143902
793.655 0.175294
796.725 0.111210
799.796 0.124749
802.869 0.058896
805.943 0.127383
809.019 0.132615
812.096 0.132803
815.174 0.129934
818.254 0.139036
821.336 0.148561
824.419 0.118891
827.503 0.214152
830.589 -0.009313
833.676 0.239058
836.765 0.121083
839.855 0.163323
842.946 0.167797
846.039 0.061585
849.133 0.272482
852.229 0.186056
855.326 0.146836
858.424 0.222884
861.524 0.162390
864.625 0.367548
867.728 0.015128
870.832 0.232065
873.937 0.194920
877.044 0.019842
880.152 0.174862
883.261 0.043447
886.372 0.132612
889.484 0.219225
892.598 0.204491
895.712 0.105273
898.828 0.221598
901.946 0.072711
905.064 0.171412
908.184 0.049630
911.306 0.487522
914.428 -0.044857
917.552 0.230933
920.677 0.286387
923.804 0.353101
926.931 -0.059576
930.06 0.630396
933.191 0.328545
936.322 -0.193281
939.455 0.423804
942.589 -0.067293
945.724 0.099255
948.861 0.637924
951.998 0.576633
955.137 -0.297564
958.278 -0.066484
961.419 -0.119109
964.562 0.750426
967.705 3.152288
970.85 2.710117
973.997 2.994757
977.144 0.469112
980.293 0.340214
983.442 -0.282547
986.593 -0.061183
989.746 0.310938
992.899 -0.182931
996.053 2.866287
999.209 -2.627366
1002.37 0.097456
1005.52 3.183555
1008.68 -0.483837
1011.84 0.015427
1015 -2.328380
1018.17 0.444264
1021.33 -2.830589
1023.03 2.812913