File: Auto_Polymerization/Data/UV_VIS_Spectra/MRG-061-G- spectra_G1_G2_after_aminolysis/MRG-061-G-2_after_aminolysis_spectrum_2025-06-20_14-49-28.txt
# Wavelength (nm)	Intensity (a.u.)
197.7802	0.001293
200.4334	-0.000604
203.0892	-0.000457
205.7475	0.001420
208.4084	0.000218
211.0718	-0.000647
213.7376	0.000640
216.4060	0.000197
219.0769	0.001040
221.7503	0.002200
224.4262	0.000640
227.1046	-0.001448
229.7855	0.000787
232.4688	0.001061
235.1546	0.001504
237.8429	0.001188
240.5337	-0.000731
243.2269	0.000197
245.9225	0.001209
248.6206	0.000281
251.3212	0.002073
254.0242	-0.000562
256.7296	0.001209
259.4375	0.001335
262.1477	0.001673
264.8604	0.000323
267.5755	0.000492
270.2931	0.000640
273.0130	0.000618
275.7353	0.000007
278.4600	0.000745
281.1871	0.000998
283.9166	0.000977
286.6484	0.000914
289.3827	0.001420
292.1193	-0.000857
294.8582	0.000998
297.5995	0.000829
300.3432	-0.000415
303.0892	0.000408
305.8376	0.000977
308.5883	-0.001005
311.3413	0.002137
314.0967	0.000513
316.8543	0.001947
319.6143	0.000176
322.3766	0.001968
325.1412	0.001103
327.9082	-0.000162
330.6774	0.000998
333.4489	0.001588
336.2227	0.000808
338.9987	0.001378
341.7771	-0.000415
344.5577	0.000745
347.3406	0.000935
350.1257	0.001694
352.9131	0.000998
355.7027	0.000302
358.4946	-0.000162
361.2888	-0.000267
364.0851	-0.000604
366.8837	0.000408
369.6845	0.000829
372.4876	0.001567
375.2928	0.000070
378.1003	0.000640
380.9100	0.000745
383.7219	-0.000119
386.5359	0.000281
389.3522	0.000302
392.1706	0.002094
394.9912	0.000302
397.8140	0.001251
400.6390	0.000513
403.4661	0.001167
406.2954	0.000661
409.1269	0.000555
411.9605	0.001462
414.7962	0.002411
417.6341	0.003254
420.4741	0.004287
423.3162	0.005594
426.1605	0.004856
429.0068	0.007176
431.8553	0.009790
434.7059	0.010908
437.5586	0.012637
440.4135	0.013438
443.2703	0.020311
446.1293	0.020754
448.9904	0.020775
451.8535	0.023348
454.7188	0.020965
457.5860	0.024718
460.4554	0.026131
463.3268	0.025730
466.2003	0.032772
469.0758	0.026953
471.9533	0.025119
474.8329	0.026173
477.7145	0.028977
480.5982	0.031402
483.4838	0.031908
486.3715	0.102983
489.2612	0.033320
492.1529	0.033320
495.0466	0.031360
497.9423	0.027459
500.8400	0.030052
503.7397	0.036462
506.6414	0.032646
509.5450	0.030179
512.4506	0.029209
515.3582	0.026531
518.2677	0.023727
521.1792	0.023685
524.0927	0.024170
527.0081	0.024971
529.9254	0.024149
532.8447	0.026046
535.7659	0.026890
538.6890	0.026637
541.6140	0.028998
544.5410	0.032224
547.4699	0.033468
550.4007	0.030242
553.3333	0.033616
556.2679	0.037875
559.2044	0.029546
562.1427	0.036736
565.0829	0.038802
568.0250	0.053498
570.9690	0.102414
573.9149	0.131553
576.8626	0.150023
579.8121	0.163348
582.7635	0.202165
585.7167	0.181418
588.6718	0.148020
591.6288	0.098893
594.5875	0.127441
597.5481	0.107327
600.5105	0.130035
603.4747	0.134631
606.4407	0.115191
609.4085	0.092504
612.3781	0.092821
615.3495	0.093179
618.3227	0.076396
621.2977	0.052507
624.2745	0.061426
627.2530	0.047932
630.2333	0.044137
633.2154	0.031107
636.1992	0.031275
639.1848	0.029188
642.1721	0.023475
645.1612	0.020215
648.1520	0.020909
651.1445	0.020408
654.1388	0.024846
657.1348	0.624629
660.1325	0.031923
663.1319	0.017564
666.1330	0.018590
669.1359	0.014850
672.1404	0.025203
675.1466	0.019173
678.1545	0.022209
681.1641	0.024254
684.1754	0.024043
687.1883	0.031697
690.2029	0.025857
693.2192	0.029884
696.2371	0.021808
699.2567	0.025393
702.2779	0.020670
705.3008	0.018920
708.3253	0.028302
711.3514	0.023643
714.3791	0.025119
717.4085	0.019953
720.4395	0.021724
723.4721	0.022546
726.5063	0.024275
729.5421	0.027522
732.5795	0.032435
735.6185	0.038275
738.6591	0.027733
741.7013	0.025646
744.7450	0.022588
747.7903	0.023221
750.8372	0.029146
753.8856	0.032899
756.9356	0.038254
759.9872	0.044348
763.0403	0.036926
766.0949	0.035935
769.1510	0.035914
772.2087	0.030601
775.2679	0.021661
778.3287	0.017887
781.3909	0.026974
784.4547	0.020902
787.5199	0.022905
790.5867	0.019637
793.6550	0.017296
796.7247	0.015799
799.7959	0.016959
802.8686	0.012890
805.9428	0.014745
809.0185	0.018772
812.0956	0.013058
815.1742	0.013733
818.2542	0.010591
821.3357	0.011814
824.4186	0.009179
827.5029	0.010064
830.5887	0.008588
833.6759	0.007998
836.7646	0.006311
839.8546	0.005173
842.9461	0.004435
846.0390	0.004772
849.1333	0.003823
852.2289	0.006185
855.3260	0.009453
858.4245	0.007914
861.5243	0.003317
864.6255	0.004751
867.7281	0.007682
870.8321	0.004751
873.9374	0.003359
877.0441	0.004372
880.1521	0.006944
883.2615	0.006944
886.3722	0.005995
889.4843	0.005721
892.5977	0.004013
895.7124	0.003570
898.8284	0.004835
901.9458	0.004161
905.0644	0.003781
908.1844	0.003634
911.3057	0.002769
914.4283	0.003739
917.5521	0.003128
920.6773	0.002980
923.8037	0.002158
926.9314	0.001420
930.0604	0.000850
933.1906	0.001694
936.3221	0.001546
939.4549	0.001841
942.5889	0.001378
945.7241	0.001378
948.8606	0.000597
951.9983	0.001504
955.1373	0.000408
958.2775	0.002010
961.4189	0.001082
964.5615	0.000323
967.7053	0.000850
970.8504	0.000197
973.9966	0.001272
977.1440	0.001462
980.2926	-0.000035
983.4424	0.000640
986.5934	0.000871
989.7456	0.000070
992.8989	-0.000836
996.0534	0.002896
999.2090	-0.000077
1002.37	-0.000288
1005.52	-0.000077
1008.68	0.000408
1011.84	0.002664
1015	0.001314
1018.17	0.000429
1021.33	-0.000394
1023.03	0.000618