File: Auto_Polymerization/Data/UV_VIS_Spectra/MRG-061-G- spectra_G1_G2_after_aminolysis/MRG-061-G-2_after_aminolysis_spectrum_2025-06-20_14-49-16_absorbance.txt
# Wavelength	Absorbance
197.78 0.380211
200.433 3.008600
203.089 0.088176
205.748 2.682145
208.408 2.970812
211.072 0.225391
213.738 0.049416
216.406 -0.093193
219.077 -0.262757
221.75 0.518913
224.426 -0.275865
227.105 2.294466
229.786 2.791691
232.469 -0.826288
235.155 3.406199
237.843 1.851258
240.534 -2.737987
243.227 -0.104130
245.923 3.026125
248.621 -0.139337
251.321 0.817318
254.024 0.271766
256.73 0.039840
259.438 2.975891
262.148 1.070816
264.86 2.662758
267.575 -0.067537
270.293 0.000000
273.013 0.525183
275.735 0.000000
278.46 0.010195
281.187 -3.094122
283.917 0.052040
286.648 0.015204
289.383 0.260569
292.119 3.059185
294.858 -0.019305
297.599 -0.228798
300.343 0.038467
303.089 -0.705774
305.838 3.201124
308.588 1.077940
311.341 0.718954
314.097 -0.228132
316.854 0.871055
319.614 1.227986
322.377 0.962136
325.141 3.384174
327.908 3.508395
330.677 0.897496
333.449 0.525545
336.223 1.501884
338.999 0.860635
341.777 0.951216
344.558 0.550369
347.341 0.790261
350.126 3.910571
352.913 0.892106
355.703 0.952033
358.495 3.959995
361.289 1.056267
364.085 4.019947
366.884 1.127623
369.685 0.938317
372.488 1.166504
375.293 4.182329
378.1 1.374169
380.91 4.341138
383.722 1.278928
386.536 4.371972
389.352 1.697952
392.171 1.690680
394.991 4.469012
397.814 2.088501
400.639 1.345464
403.466 1.341524
406.295 4.555469
409.127 1.602437
411.961 1.260783
414.796 1.249053
417.634 1.176366
420.474 0.977880
423.316 1.000294
426.161 0.886050
429.007 0.725220
431.855 0.646822
434.706 0.630992
437.559 0.575874
440.413 0.496766
443.27 0.424923
446.129 0.388060
448.99 0.394123
451.853 0.339685
454.719 0.327997
457.586 0.290450
460.455 0.252827
463.327 0.303988
466.2 0.243601
469.076 0.209979
471.953 0.196003
474.833 0.239048
477.714 0.241675
480.598 0.206258
483.484 0.224715
486.372 0.144731
489.261 0.204963
492.153 0.204453
495.047 0.201511
497.942 0.200072
500.84 0.214347
503.74 0.206190
506.641 0.234710
509.545 0.214956
512.451 0.190099
515.358 0.189054
518.268 0.215804
521.179 0.222128
524.093 0.194103
527.008 0.203767
529.925 0.212407
532.845 0.183089
535.766 0.186766
538.689 0.169554
541.614 0.181414
544.541 0.188344
547.47 0.230538
550.401 0.159313
553.333 0.173926
556.268 0.215852
559.204 0.188951
562.143 0.156734
565.083 0.180984
568.025 0.201751
570.969 0.201161
573.915 0.200296
576.863 0.208910
579.812 0.200222
582.764 0.131955
585.717 0.177307
588.672 0.166232
591.629 0.187696
594.587 0.162558
597.548 0.183148
600.51 0.156056
603.475 0.197698
606.441 0.138328
609.409 0.144360
612.378 0.163420
615.35 0.187980
618.323 0.152660
621.298 0.128052
624.274 0.154018
627.253 0.163640
630.233 0.150766
633.215 0.146506
636.199 0.167652
639.185 0.122574
642.172 0.156998
645.161 0.169897
648.152 0.186359
651.144 0.149137
654.139 0.176060
657.135 0.070535
660.133 0.054897
663.132 0.171580
666.133 0.112040
669.136 0.195318
672.14 0.194174
675.147 0.123468
678.154 0.134853
681.164 0.161190
684.175 0.181694
687.188 0.141124
690.203 0.153368
693.219 0.122912
696.237 0.140853
699.257 0.140341
702.278 0.165067
705.301 0.096258
708.325 0.117545
711.351 0.104607
714.379 0.099045
717.409 0.120769
720.439 0.089568
723.472 0.119248
726.506 0.118780
729.542 0.143689
732.58 0.143029
735.619 0.145160
738.659 0.118753
741.701 0.118598
744.745 0.117632
747.79 0.159439
750.837 0.105287
753.886 0.187249
756.936 0.139527
759.987 0.137776
763.04 0.120164
766.095 0.101334
769.151 0.145459
772.209 0.129227
775.268 0.098753
778.329 0.120353
781.391 0.149044
784.455 0.131781
787.52 0.157174
790.587 0.114100
793.655 0.153899
796.725 0.118943
799.796 0.167780
802.869 0.117414
805.943 0.136363
809.019 0.132735
812.096 0.082740
815.174 0.119108
818.254 0.179218
821.336 0.215063
824.419 0.059534
827.503 0.121544
830.589 0.073036
833.676 0.283413
836.765 0.135432
839.855 0.091286
842.946 0.018039
846.039 0.221006
849.133 0.226107
852.229 0.219259
855.326 0.112663
858.424 0.143716
861.524 0.215346
864.625 0.180033
867.728 -0.000934
870.832 0.148493
873.937 0.074911
877.044 -0.004711
880.152 0.112781
883.261 0.087926
886.372 0.076094
889.484 0.072778
892.598 0.079896
895.712 -0.002656
898.828 0.054850
901.946 0.132473
905.064 0.142316
908.184 0.140246
911.306 0.352843
914.428 0.173415
917.552 0.163624
920.677 -0.032526
923.804 0.248180
926.931 -0.231381
930.06 0.053637
933.191 0.178113
936.322 -0.052103
939.455 1.224752
942.589 0.143950
945.724 0.895411
948.861 3.265290
951.998 0.746708
955.137 -0.358551
958.278 2.826723
961.419 -0.116903
964.562 0.373757
967.705 0.050541
970.85 0.613207
973.997 0.256770
977.144 3.192567
980.293 0.646872
983.442 -0.676694
986.593 2.820201
989.746 -0.730454
992.899 0.080958
996.053 1.264227
999.209 -1.792392
1002.37 2.599883
1005.52 3.183555
1008.68 -0.561130
1011.84 2.872156
1015 -2.854306
1018.17 3.231724
1021.33 -2.664642
1023.03 2.812913