File: MRG-061-G-2_after_aminolysis_spectrum_2025-06-20_14-49-03.txt
# Wavelength (nm)	Intensity (a.u.)
197.7802	-0.000040
200.4334	-0.001222
203.0892	0.001541
205.7475	-0.000230
208.4084	-0.000694
211.0718	-0.000399
213.7376	0.000297
216.4060	-0.000083
219.0769	-0.000504
221.7503	-0.000294
224.4262	-0.000104
227.1046	-0.000167
229.7855	-0.000736
232.4688	-0.000315
235.1546	0.000592
237.8429	-0.001390
240.5337	0.000213
243.2269	0.000065
245.9225	0.001373
248.6206	0.000149
251.3212	0.000255
254.0242	0.000276
256.7296	0.000424
259.4375	0.000592
262.1477	0.000824
264.8604	-0.001074
267.5755	0.001331
270.2931	0.000213
273.0130	0.000571
275.7353	0.000845
278.4600	-0.000294
281.1871	0.000402
283.9166	0.001668
286.6484	-0.000167
289.3827	-0.000104
292.1193	-0.000905
294.8582	0.000571
297.5995	0.000065
300.3432	-0.001095
303.0892	0.001710
305.8376	0.000297
308.5883	-0.000800
311.3413	0.000930
314.0967	-0.000884
316.8543	0.000318
319.6143	-0.000125
322.3766	0.000635
325.1412	-0.000547
327.9082	0.000360
330.6774	0.000318
333.4489	-0.000694
336.2227	0.000571
338.9987	0.000255
341.7771	0.001099
344.5577	-0.000631
347.3406	-0.000441
350.1257	0.000402
352.9131	-0.000294
355.7027	0.000993
358.4946	0.000402
361.2888	0.000023
364.0851	0.000170
366.8837	0.001246
369.6845	-0.000990
372.4876	0.000698
375.2928	-0.000188
378.1003	0.000360
380.9100	-0.001285
383.7219	0.001942
386.5359	0.000930
389.3522	-0.000062
392.1706	0.001563
394.9912	0.000656
397.8140	0.000909
400.6390	0.000402
403.4661	0.001077
406.2954	0.000192
409.1269	0.001331
411.9605	0.001689
414.7962	0.002027
417.6341	0.002533
420.4741	0.002870
423.3162	0.004030
426.1605	0.006245
429.0068	0.006371
431.8553	0.009008
434.7059	0.009388
437.5586	0.010273
440.4135	0.013648
443.2703	0.019090
446.1293	0.019069
448.9904	0.021325
451.8535	0.020250
454.7188	0.023350
457.5860	0.024489
460.4554	0.027358
463.3268	0.024679
466.2003	0.031028
469.0758	0.025227
471.9533	0.023709
474.8329	0.027526
477.7145	0.027864
480.5982	0.031745
483.4838	0.030880
486.3715	0.114677
489.2612	0.032356
492.1529	0.028497
495.0466	0.032757
497.9423	0.031091
500.8400	0.031365
503.7397	0.032841
506.6414	0.032736
509.5450	0.028918
512.4506	0.027168
515.3582	0.026261
518.2677	0.026809
521.1792	0.022971
524.0927	0.022823
527.0081	0.025417
529.9254	0.023540
532.8447	0.024637
535.7659	0.028412
538.6890	0.029319
541.6140	0.028244
544.5410	0.033601
547.4699	0.031281
550.4007	0.030753
553.3333	0.031513
556.2679	0.036680
559.2044	0.029889
562.1427	0.037693
565.0829	0.040202
568.0250	0.052415
570.9690	0.096728
573.9149	0.126636
576.8626	0.138152
579.8121	0.158949
582.7635	0.215938
585.7167	0.178015
588.6718	0.146357
591.6288	0.092784
594.5875	0.122312
597.5481	0.108561
600.5105	0.129737
603.4747	0.125750
606.4407	0.122017
609.4085	0.094197
612.3781	0.093628
615.3495	0.088587
618.3227	0.077725
621.2977	0.055156
624.2745	0.061020
627.2530	0.049694
630.2333	0.042670
633.2154	0.032251
636.1992	0.030479
639.1848	0.028792
642.1721	0.024478
645.1612	0.020261
648.1520	0.018870
651.1445	0.020389
654.1388	0.023762
657.1348	0.774288
660.1325	0.046757
663.1319	0.016198
666.1330	0.015864
669.1359	0.015167
672.1404	0.021072
675.1466	0.020271
678.1545	0.021684
681.1641	0.023962
684.1754	0.024152
687.1883	0.032272
690.2029	0.025565
693.2192	0.027252
696.2371	0.020988
699.2567	0.025544
702.2779	0.020967
705.3008	0.016263
708.3253	0.026809
711.3514	0.021368
714.3791	0.025417
717.4085	0.019976
720.4395	0.019533
723.4721	0.021115
726.5063	0.024194
729.5421	0.027801
732.5795	0.029741
735.6185	0.035921
738.6591	0.030859
741.7013	0.024679
744.7450	0.022570
747.7903	0.025164
750.8372	0.029699
753.8856	0.030100
756.9356	0.038832
759.9872	0.043936
763.0403	0.039042
766.0949	0.038578
769.1510	0.036870
772.2087	0.030142
775.2679	0.020714
778.3287	0.018837
781.3909	0.025270
784.4547	0.023941
787.5199	0.019343
790.5867	0.018921
793.6550	0.016179
796.7247	0.018246
799.7959	0.016601
802.8686	0.013922
805.9428	0.014660
809.0185	0.018098
812.0956	0.011876
815.1742	0.012361
818.2542	0.011033
821.3357	0.012509
824.4186	0.008460
827.5029	0.009029
830.5887	0.010653
833.6759	0.006561
836.7646	0.006646
839.8546	0.005465
842.9461	0.003524
846.0390	0.005507
849.1333	0.002955
852.2289	0.003777
855.3260	0.010505
858.4245	0.005781
861.5243	0.005549
864.6255	0.003039
867.7281	0.004937
870.8321	0.003756
873.9374	0.003566
877.0441	0.004642
880.1521	0.006013
883.2615	0.005465
886.3722	0.004979
889.4843	0.002723
892.5977	0.003798
895.7124	0.004094
898.8284	0.003461
901.9458	0.003967
905.0644	0.003608
908.1844	0.003271
911.3057	0.001499
914.4283	0.003587
917.5521	0.002744
920.6773	0.001689
923.8037	0.001837
926.9314	0.002512
930.0604	0.000508
933.1906	0.001162
936.3221	0.002216
939.4549	0.001056
942.5889	0.002090
945.7241	0.002364
948.8606	0.000424
951.9983	0.000466
955.1373	0.001373
958.2775	0.000782
961.4189	0.000592
964.5615	0.000318
967.7053	-0.000062
970.8504	-0.000357
973.9966	-0.000040
977.1440	0.000529
980.2926	0.000466
983.4424	0.000782
986.5934	0.000761
989.7456	0.000065
992.8989	0.001120
996.0534	-0.000800
999.2090	0.000424
1002.37	0.000318
1005.52	-0.000483
1008.68	0.001499
1011.84	0.000719
1015	0.000213
1018.17	0.000613
1021.33	0.000677
1023.03	-0.000019