File: MRG-061-G-2_after_aminolysis_spectrum_2025-06-20_14-49-16.txt
# Wavelength (nm)	Intensity (a.u.)
197.7802	0.000315
200.4334	-0.000149
203.0892	0.000884
205.7475	-0.000128
208.4084	-0.000571
211.0718	0.000757
213.7376	0.000863
216.4060	0.000989
219.0769	0.001791
221.7503	0.000462
224.4262	0.000989
227.1046	-0.000719
229.7855	-0.000951
232.4688	0.000610
235.1546	-0.000192
237.8429	-0.000065
240.5337	0.000547
243.2269	0.000652
245.9225	-0.001056
248.6206	0.000736
251.3212	0.000083
254.0242	0.000399
256.7296	0.000968
259.4375	-0.000318
262.1477	0.000083
264.8604	-0.000424
267.5755	0.000736
270.2931	-0.001162
273.0130	0.000188
275.7353	-0.000255
278.4600	0.000842
281.1871	0.001242
283.9166	0.000652
286.6484	0.000842
289.3827	0.000652
292.1193	-0.000023
294.8582	0.001242
297.5995	0.000315
300.3432	0.001706
303.0892	0.001158
305.8376	-0.000255
308.5883	0.000146
311.3413	0.000378
314.0967	0.000673
316.8543	0.000167
319.6143	0.000104
322.3766	0.000315
325.1412	-0.000402
327.9082	-0.000213
330.6774	0.000547
333.4489	0.001348
336.2227	0.000146
338.9987	0.000757
341.7771	0.000736
344.5577	0.002170
347.3406	0.001285
350.1257	-0.000149
352.9131	0.001011
355.7027	0.001095
358.4946	-0.000550
361.2888	0.000968
364.0851	-0.000297
366.8837	0.000863
369.6845	0.001580
372.4876	0.001032
375.2928	-0.000424
378.1003	0.000757
380.9100	-0.000529
383.7219	0.001179
386.5359	-0.000824
389.3522	0.000504
392.1706	0.000568
394.9912	-0.000571
397.8140	0.000272
400.6390	0.001559
403.4661	0.001517
406.2954	-0.000065
409.1269	0.000863
411.9605	0.001875
414.7962	0.001981
417.6341	0.002318
420.4741	0.004237
423.3162	0.004279
426.1605	0.004870
429.0068	0.007569
431.8553	0.009045
434.7059	0.009657
437.5586	0.011429
440.4135	0.014465
443.2703	0.019379
446.1293	0.021678
448.9904	0.021003
451.8535	0.022500
454.7188	0.021003
457.5860	0.025158
460.4554	0.028890
463.3268	0.024145
466.2003	0.031611
469.0758	0.027372
471.9533	0.025769
474.8329	0.026507
477.7145	0.025579
480.5982	0.033741
483.4838	0.032011
486.3715	0.119341
489.2612	0.033256
492.1529	0.031168
495.0466	0.032096
497.9423	0.031231
500.8400	0.030704
503.7397	0.034711
506.6414	0.031147
509.5450	0.029671
512.4506	0.028321
515.3582	0.027372
518.2677	0.025179
521.1792	0.023006
524.0927	0.024567
527.0081	0.023723
529.9254	0.024820
532.8447	0.025896
535.7659	0.028532
538.6890	0.029607
541.6140	0.030303
544.5410	0.033467
547.4699	0.029481
550.4007	0.031885
553.3333	0.034858
556.2679	0.033530
559.2044	0.029713
562.1427	0.039456
565.0829	0.040658
568.0250	0.050359
570.9690	0.096881
573.9149	0.128431
576.8626	0.141126
579.8121	0.156796
582.7635	0.221961
585.7167	0.178074
588.6718	0.149225
591.6288	0.094941
594.5875	0.126554
597.5481	0.108248
600.5105	0.136107
603.4747	0.126680
606.4407	0.121113
609.4085	0.099518
612.3781	0.093001
615.3495	0.087750
618.3227	0.077922
621.2977	0.057065
624.2745	0.062232
627.2530	0.049051
630.2333	0.044117
633.2154	0.032982
636.1992	0.029966
639.1848	0.030620
642.1721	0.022451
645.1612	0.018619
648.1520	0.019478
651.1445	0.021021
654.1388	0.023309
657.1348	0.772797
660.1325	0.048508
663.1319	0.015288
666.1330	0.018837
669.1359	0.014360
672.1404	0.021615
675.1466	0.020412
678.1545	0.021361
681.1641	0.023787
684.1754	0.022669
687.1883	0.032433
690.2029	0.024567
693.2192	0.030071
696.2371	0.021762
699.2567	0.026170
702.2779	0.020813
705.3008	0.019611
708.3253	0.029544
711.3514	0.023723
714.3791	0.027034
717.4085	0.021298
720.4395	0.023323
723.4721	0.021277
726.5063	0.025938
729.5421	0.026507
732.5795	0.031358
735.6185	0.035048
738.6591	0.031147
741.7013	0.025579
744.7450	0.022627
747.7903	0.022100
750.8372	0.030662
753.8856	0.028384
756.9356	0.037410
759.9872	0.044665
763.0403	0.037220
766.0949	0.039772
769.1510	0.035069
772.2087	0.030788
775.2679	0.023238
778.3287	0.019400
781.3909	0.026107
784.4547	0.022922
787.5199	0.020497
790.5867	0.020265
793.6550	0.016996
796.7247	0.017924
799.7959	0.015035
802.8686	0.012167
805.9428	0.014360
809.0185	0.018093
812.0956	0.013327
815.1742	0.012673
818.2542	0.010058
821.3357	0.010733
824.4186	0.009699
827.5029	0.011175
830.5887	0.008813
833.6759	0.005924
836.7646	0.006430
839.8546	0.006451
842.9461	0.004975
846.0390	0.003815
849.1333	0.003288
852.2289	0.003499
855.3260	0.011365
858.4245	0.006937
861.5243	0.004912
864.6255	0.004680
867.7281	0.005123
870.8321	0.004553
873.9374	0.004701
877.0441	0.004912
880.1521	0.006937
883.2615	0.004933
886.3722	0.005671
889.4843	0.003815
892.5977	0.005060
895.7124	0.005249
898.8284	0.005081
901.9458	0.003457
905.0644	0.003858
908.1844	0.002655
911.3057	0.002044
914.4283	0.002170
917.5521	0.003204
920.6773	0.003520
923.8037	0.002339
926.9314	0.003731
930.0604	0.001917
933.1906	0.001643
936.3221	0.001601
939.4549	0.000167
942.5889	0.001285
945.7241	0.000378
948.8606	-0.000360
951.9983	0.000315
955.1373	0.001580
958.2775	-0.000297
961.4189	0.000589
964.5615	0.000757
967.7053	0.001264
970.8504	0.000125
973.9966	0.000547
977.1440	-0.000023
980.2926	0.000230
983.4424	0.001938
986.5934	-0.000402
989.7456	0.000715
992.8989	0.000610
996.0534	0.000040
999.2090	0.000062
1002.37	-0.000782
1005.52	-0.000445
1008.68	0.001791
1011.84	-0.000149
1015	0.000715
1018.17	-0.001668
1021.33	0.000462
1023.03	-0.000044