File: MRG-061-G-1_after_aminolysis_spectrum_2025-06-20_14-42-59.txt
# Wavelength (nm)	Intensity (a.u.)
197.7802	0.001170
200.4334	0.000116
203.0892	-0.000200
205.7475	0.000179
208.4084	0.000411
211.0718	-0.000179
213.7376	0.000959
216.4060	-0.000032
219.0769	0.001275
221.7503	0.001465
224.4262	0.000580
227.1046	-0.000643
229.7855	0.002245
232.4688	0.000411
235.1546	0.001254
237.8429	-0.001254
240.5337	0.000685
243.2269	-0.000137
245.9225	0.000474
248.6206	0.000390
251.3212	0.001592
254.0242	0.000833
256.7296	0.000601
259.4375	-0.001212
262.1477	-0.000011
264.8604	0.000917
267.5755	0.000875
270.2931	0.000327
273.0130	0.000032
275.7353	0.001444
278.4600	-0.000221
281.1871	-0.000306
283.9166	0.000369
286.6484	0.001360
289.3827	0.000538
292.1193	-0.000833
294.8582	0.001107
297.5995	-0.000095
300.3432	0.001697
303.0892	-0.000453
305.8376	0.000791
308.5883	-0.000348
311.3413	0.001571
314.0967	-0.000116
316.8543	0.000411
319.6143	-0.000685
322.3766	0.001423
325.1412	-0.000411
327.9082	-0.000137
330.6774	0.000601
333.4489	0.000685
336.2227	-0.000285
338.9987	0.001254
341.7771	-0.000179
344.5577	-0.000622
347.3406	0.000221
350.1257	0.000938
352.9131	0.000011
355.7027	0.000601
358.4946	0.000854
361.2888	0.001001
364.0851	0.000917
366.8837	-0.000116
369.6845	-0.001254
372.4876	0.001065
375.2928	0.000664
378.1003	0.000770
380.9100	0.001023
383.7219	0.001929
386.5359	0.000348
389.3522	-0.000095
392.1706	0.000748
394.9912	0.000622
397.8140	0.000095
400.6390	0.002456
403.4661	0.000917
406.2954	-0.000390
409.1269	0.000432
411.9605	0.000938
414.7962	0.002372
417.6341	0.001275
420.4741	0.001887
423.3162	0.005091
426.1605	0.006188
429.0068	0.006124
431.8553	0.009519
434.7059	0.011543
437.5586	0.013714
440.4135	0.015190
443.2703	0.018226
446.1293	0.020967
448.9904	0.023686
451.8535	0.022569
454.7188	0.020608
457.5860	0.024635
460.4554	0.028472
463.3268	0.025520
466.2003	0.032436
469.0758	0.024150
471.9533	0.023497
474.8329	0.023391
477.7145	0.024551
480.5982	0.029716
483.4838	0.028514
486.3715	0.113498
489.2612	0.032183
492.1529	0.028535
495.0466	0.029336
497.9423	0.028641
500.8400	0.029927
503.7397	0.029948
506.6414	0.029948
509.5450	0.028599
512.4506	0.025795
515.3582	0.023855
518.2677	0.024003
521.1792	0.023623
524.0927	0.020313
527.0081	0.023876
529.9254	0.021936
532.8447	0.021325
535.7659	0.026048
538.6890	0.024762
541.6140	0.027207
544.5410	0.029336
547.4699	0.030475
550.4007	0.029379
553.3333	0.029041
556.2679	0.033448
559.2044	0.028662
562.1427	0.035577
565.0829	0.038254
568.0250	0.049238
570.9690	0.086281
573.9149	0.120097
576.8626	0.130786
579.8121	0.148833
582.7635	0.197828
585.7167	0.164750
588.6718	0.136605
591.6288	0.086850
594.5875	0.114447
597.5481	0.097349
600.5105	0.118579
603.4747	0.124524
606.4407	0.110483
609.4085	0.089717
612.3781	0.086344
615.3495	0.081453
618.3227	0.073568
621.2977	0.051347
624.2745	0.055816
627.2530	0.042998
630.2333	0.039077
633.2154	0.030053
636.1992	0.027818
639.1848	0.027418
642.1721	0.021288
645.1612	0.016969
648.1520	0.017972
651.1445	0.018751
654.1388	0.021461
657.1348	0.711919
660.1325	0.045346
663.1319	0.014644
666.1330	0.014544
669.1359	0.014600
672.1404	0.019617
675.1466	0.016539
678.1545	0.018226
681.1641	0.020229
684.1754	0.021367
687.1883	0.028788
690.2029	0.022611
693.2192	0.025563
696.2371	0.019322
699.2567	0.023138
702.2779	0.019870
705.3008	0.015759
708.3253	0.026532
711.3514	0.022358
714.3791	0.023433
717.4085	0.018922
720.4395	0.019470
723.4721	0.019006
726.5063	0.020735
729.5421	0.024192
732.5795	0.026448
735.6185	0.030665
738.6591	0.026722
741.7013	0.022400
744.7450	0.018648
747.7903	0.022442
750.8372	0.027587
753.8856	0.027565
756.9356	0.032878
759.9872	0.039351
763.0403	0.031318
766.0949	0.034649
769.1510	0.030960
772.2087	0.028999
775.2679	0.020081
778.3287	0.016518
781.3909	0.023159
784.4547	0.020819
787.5199	0.018437
790.5867	0.018268
793.6550	0.013440
796.7247	0.016645
799.7959	0.015591
802.8686	0.011311
805.9428	0.011901
809.0185	0.015253
812.0956	0.010678
815.1742	0.012766
818.2542	0.010573
821.3357	0.009751
824.4186	0.007980
827.5029	0.009856
830.5887	0.008127
833.6759	0.007031
836.7646	0.006905
839.8546	0.005766
842.9461	0.004649
846.0390	0.003489
849.1333	0.004122
852.2289	0.003637
855.3260	0.009097
858.4245	0.007642
861.5243	0.004396
864.6255	0.004712
867.7281	0.003721
870.8321	0.003215
873.9374	0.003911
877.0441	0.004607
880.1521	0.005155
883.2615	0.005492
886.3722	0.005724
889.4843	0.004838
892.5977	0.002562
895.7124	0.002140
898.8284	0.003004
901.9458	0.002562
905.0644	0.002498
908.1844	0.004396
911.3057	0.002962
914.4283	0.003974
917.5521	0.003089
920.6773	0.002709
923.8037	0.001275
926.9314	0.001887
930.0604	0.001191
933.1906	0.003299
936.3221	0.001676
939.4549	0.001149
942.5889	0.001824
945.7241	0.000980
948.8606	0.001465
951.9983	0.002519
955.1373	0.001971
958.2775	0.001845
961.4189	0.001001
964.5615	0.000580
967.7053	0.001465
970.8504	0.000053
973.9966	0.001634
977.1440	0.001465
980.2926	0.002013
983.4424	0.001845
986.5934	0.001233
989.7456	0.000242
992.8989	0.000580
996.0534	0.000580
999.2090	0.002034
1002.37	0.002456
1005.52	0.000517
1008.68	0.001297
1011.84	-0.000390
1015	0.000179
1018.17	0.001086
1021.33	0.001381
1023.03	-0.000474