File: spectrum_2025-06-19_09-25-19.txt
# Wavelength (nm)	Intensity (a.u.)
197.7802	0.000243
200.4334	0.000328
203.0892	0.000560
205.7475	0.001152
208.4084	0.000687
211.0718	0.000074
213.7376	0.000751
216.4060	-0.001131
219.0769	0.000243
221.7503	0.000433
224.4262	0.001026
227.1046	-0.002231
229.7855	0.000497
232.4688	0.000899
235.1546	-0.000349
237.8429	-0.000349
240.5337	-0.000666
243.2269	-0.000391
245.9225	0.001047
248.6206	0.001448
251.3212	0.003204
254.0242	0.001406
256.7296	-0.000222
259.4375	0.000264
262.1477	0.002189
264.8604	0.002315
267.5755	0.002421
270.2931	0.000539
273.0130	0.000560
275.7353	-0.001195
278.4600	0.001787
281.1871	0.000793
283.9166	-0.000011
286.6484	0.000751
289.3827	-0.000581
292.1193	-0.000053
294.8582	0.000391
297.5995	0.002950
300.3432	0.001596
303.0892	0.000560
305.8376	-0.000730
308.5883	-0.000095
311.3413	0.002485
314.0967	0.000497
316.8543	0.000391
319.6143	0.001110
322.3766	0.000687
325.1412	0.001766
327.9082	0.002146
330.6774	0.000581
333.4489	0.000581
336.2227	0.000222
338.9987	0.000624
341.7771	-0.000095
344.5577	0.000983
347.3406	0.000285
350.1257	0.002146
352.9131	0.002611
355.7027	0.001258
358.4946	0.000666
361.2888	-0.001977
364.0851	0.002189
366.8837	0.000032
369.6845	-0.000476
372.4876	0.000920
375.2928	0.000708
378.1003	0.001322
380.9100	0.001512
383.7219	0.000518
386.5359	-0.000137
389.3522	0.000159
392.1706	-0.000328
394.9912	0.001174
397.8140	-0.001300
400.6390	0.000285
403.4661	0.000159
406.2954	0.000243
409.1269	0.001258
411.9605	-0.000581
414.7962	0.000687
417.6341	0.001512
420.4741	0.001470
423.3162	0.000222
426.1605	-0.000391
429.0068	0.000687
431.8553	-0.000391
434.7059	-0.000391
437.5586	0.000730
440.4135	0.000687
443.2703	0.002611
446.1293	0.002675
448.9904	-0.001174
451.8535	-0.000159
454.7188	-0.000391
457.5860	-0.000687
460.4554	0.000391
463.3268	0.000772
466.2003	-0.000455
469.0758	-0.000433
471.9533	-0.000476
474.8329	0.000222
477.7145	0.000730
480.5982	-0.000180
483.4838	-0.000772
486.3715	0.000560
489.2612	-0.000201
492.1529	0.000539
495.0466	-0.000222
497.9423	0.001279
500.8400	0.000560
503.7397	0.000539
506.6414	0.002189
509.5450	0.000624
512.4506	-0.000518
515.3582	0.002337
518.2677	-0.001026
521.1792	0.000983
524.0927	0.000708
527.0081	0.002125
529.9254	0.001406
532.8447	0.000793
535.7659	-0.000095
538.6890	0.000603
541.6140	0.000370
544.5410	-0.001300
547.4699	-0.000032
550.4007	-0.000497
553.3333	0.000856
556.2679	-0.002379
559.2044	0.001258
562.1427	-0.000349
565.0829	0.000814
568.0250	0.000856
570.9690	0.000370
573.9149	-0.000941
576.8626	-0.001300
579.8121	0.000518
582.7635	-0.000730
585.7167	0.001026
588.6718	-0.000666
591.6288	0.000518
594.5875	-0.000687
597.5481	-0.001004
600.5105	0.001216
603.4747	0.000201
606.4407	0.001871
609.4085	-0.000095
612.3781	0.000328
615.3495	0.001152
618.3227	0.003626
621.2977	0.000899
624.2745	-0.000878
627.2530	0.000349
630.2333	0.001808
633.2154	-0.000581
636.1992	0.002252
639.1848	0.000095
642.1721	0.002313
645.1612	0.001404
648.1520	0.002013
651.1445	0.000736
654.1388	0.000011
657.1348	-0.000032
660.1325	-0.000776
663.1319	-0.000200
666.1330	-0.000158
669.1359	0.002062
672.1404	0.000328
675.1466	0.001258
678.1545	0.001639
681.1641	0.001237
684.1754	0.001893
687.1883	0.000095
690.2029	0.000624
693.2192	-0.000074
696.2371	0.001026
699.2567	0.000243
702.2779	-0.000264
705.3008	-0.000180
708.3253	-0.000011
711.3514	0.000222
714.3791	-0.000074
717.4085	-0.000095
720.4395	0.000730
723.4721	0.001744
726.5063	0.000856
729.5421	0.001300
732.5795	0.001470
735.6185	0.000751
738.6591	-0.000011
741.7013	0.001533
744.7450	0.001131
747.7903	0.001195
750.8372	0.000455
753.8856	0.001026
756.9356	0.001470
759.9872	-0.000159
763.0403	-0.000835
766.0949	-0.000137
769.1510	0.002104
772.2087	0.000708
775.2679	0.000941
778.3287	0.000074
781.3909	0.001385
784.4547	-0.000708
787.5199	0.000920
790.5867	-0.000666
793.6550	0.001702
796.7247	0.002104
799.7959	0.001195
802.8686	0.001110
805.9428	0.000581
809.0185	0.000095
812.0956	0.001702
815.1742	0.000116
818.2542	0.000983
821.3357	0.000814
824.4186	0.000391
827.5029	-0.000370
830.5887	0.000095
833.6759	0.002252
836.7646	0.000899
839.8546	0.000159
842.9461	-0.000180
846.0390	-0.001216
849.1333	0.000687
852.2289	-0.000264
855.3260	0.000053
858.4245	0.001744
861.5243	0.000476
864.6255	0.001787
867.7281	0.000201
870.8321	0.000624
873.9374	0.000011
877.0441	-0.000856
880.1521	0.000159
883.2615	0.000349
886.3722	0.000433
889.4843	0.000497
892.5977	-0.000116
895.7124	0.000899
898.8284	0.001047
901.9458	0.000899
905.0644	0.001026
908.1844	-0.000835
911.3057	0.001512
914.4283	-0.001131
917.5521	-0.000856
920.6773	-0.000560
923.8037	0.000730
926.9314	0.001470
930.0604	0.000180
933.1906	0.001004
936.3221	0.000581
939.4549	0.002083
942.5889	-0.001152
945.7241	0.001258
948.8606	0.000814
951.9983	0.002611
955.1373	0.001131
958.2775	0.002083
961.4189	-0.000264
964.5615	0.001322
967.7053	-0.000243
970.8504	0.000856
973.9966	0.002104
977.1440	0.000011
980.2926	0.000793
983.4424	0.000899
986.5934	-0.000645
989.7456	-0.000920
992.8989	-0.000264
996.0534	-0.000560
999.2090	0.000645
1002.37	-0.000159
1005.52	-0.001152
1008.68	-0.000814
1011.84	0.000687
1015	-0.001174
1018.17	0.000518
1021.33	0.001533
1023.03	-0.001787