File: spectrum_2025-06-19_08-49-30.txt
# Wavelength (nm)	Intensity (a.u.)
197.7802	0.000899
200.4334	-0.001512
203.0892	-0.001956
205.7475	-0.001406
208.4084	-0.000243
211.0718	0.000328
213.7376	-0.002125
216.4060	-0.000899
219.0769	0.000793
221.7503	-0.000074
224.4262	0.000560
227.1046	-0.000095
229.7855	-0.002209
232.4688	-0.000751
235.1546	-0.000497
237.8429	0.000074
240.5337	0.000180
243.2269	-0.000412
245.9225	-0.000053
248.6206	-0.001343
251.3212	0.000729
254.0242	-0.000645
256.7296	-0.000856
259.4375	-0.001152
262.1477	0.001364
264.8604	0.000074
267.5755	-0.000560
270.2931	0.001173
273.0130	-0.001427
275.7353	-0.000941
278.4600	0.000412
281.1871	-0.001660
283.9166	0.000772
286.6484	-0.000307
289.3827	0.000349
292.1193	-0.001575
294.8582	0.000053
297.5995	0.000814
300.3432	0.002357
303.0892	-0.000962
305.8376	0.001237
308.5883	0.000264
311.3413	0.000856
314.0967	-0.001068
316.8543	-0.000433
319.6143	0.000603
322.3766	0.000285
325.1412	-0.000835
327.9082	0.000201
330.6774	0.001427
333.4489	-0.000666
336.2227	-0.000243
338.9987	0.000095
341.7771	-0.000497
344.5577	-0.000433
347.3406	-0.000328
350.1257	0.000011
352.9131	-0.000032
355.7027	0.000349
358.4946	0.001025
361.2888	0.000391
364.0851	0.000835
366.8837	0.000624
369.6845	-0.000899
372.4876	0.000729
375.2928	0.000180
378.1003	0.000222
380.9100	0.000497
383.7219	0.000497
386.5359	0.000201
389.3522	0.000201
392.1706	-0.001131
394.9912	0.001089
397.8140	-0.000243
400.6390	-0.000645
403.4661	-0.001617
406.2954	0.001068
409.1269	0.001660
411.9605	-0.002548
414.7962	-0.000074
417.6341	0.001089
420.4741	0.000941
423.3162	-0.001533
426.1605	0.000243
429.0068	0.000285
431.8553	-0.000074
434.7059	-0.000370
437.5586	0.000518
440.4135	0.000708
443.2703	0.002611
446.1293	0.000328
448.9904	0.001427
451.8535	-0.000983
454.7188	0.000497
457.5860	0.000603
460.4554	0.001427
463.3268	0.000518
466.2003	-0.001300
469.0758	-0.000328
471.9533	-0.000222
474.8329	0.001216
477.7145	-0.000328
480.5982	-0.000560
483.4838	0.000011
486.3715	0.000455
489.2612	-0.001512
492.1529	0.000624
495.0466	0.000497
497.9423	-0.000137
500.8400	-0.000095
503.7397	0.000772
506.6414	0.001639
509.5450	0.000708
512.4506	-0.000539
515.3582	0.001258
518.2677	-0.001639
521.1792	0.000455
524.0927	0.000116
527.0081	0.001892
529.9254	0.000349
532.8447	0.000264
535.7659	-0.000328
538.6890	0.000687
541.6140	0.001681
544.5410	0.000751
547.4699	0.001195
550.4007	0.000370
553.3333	-0.000264
556.2679	-0.000708
559.2044	0.000074
562.1427	-0.000074
565.0829	-0.000476
568.0250	0.000370
570.9690	0.000518
573.9149	0.000877
576.8626	0.000137
579.8121	0.000729
582.7635	-0.000920
585.7167	0.001596
588.6718	-0.001131
591.6288	-0.000053
594.5875	-0.000581
597.5481	0.000180
600.5105	-0.000476
603.4747	-0.000666
606.4407	-0.000243
609.4085	-0.000433
612.3781	-0.001681
615.3495	0.001343
618.3227	0.000962
621.2977	0.000624
624.2745	-0.000159
627.2530	0.000285
630.2333	0.001195
633.2154	-0.000518
636.1992	0.000645
639.1848	0.000391
642.1721	0.001354
645.1612	-0.000371
648.1520	0.000847
651.1445	0.000075
654.1388	0.001036
657.1348	0.000095
660.1325	0.001053
663.1319	-0.001276
666.1330	0.001967
669.1359	0.000201
672.1404	-0.000899
675.1466	-0.001808
678.1545	0.003605
681.1641	0.000729
684.1754	0.001533
687.1883	-0.000476
690.2029	-0.000137
693.2192	0.001279
696.2371	-0.001110
699.2567	0.000581
702.2779	-0.001089
705.3008	0.001195
708.3253	-0.001660
711.3514	-0.000137
714.3791	0.000307
717.4085	0.000476
720.4395	-0.000729
723.4721	-0.000772
726.5063	0.000412
729.5421	-0.000180
732.5795	-0.000856
735.6185	0.000328
738.6591	-0.001512
741.7013	0.000624
744.7450	-0.000412
747.7903	0.000666
750.8372	-0.000476
753.8856	0.001004
756.9356	0.000159
759.9872	-0.002273
763.0403	0.000581
766.0949	-0.001237
769.1510	-0.000053
772.2087	-0.000729
775.2679	0.001956
778.3287	-0.000539
781.3909	0.001343
784.4547	-0.000053
787.5199	0.000243
790.5867	0.000011
793.6550	0.001554
796.7247	0.000476
799.7959	0.000159
802.8686	-0.000603
805.9428	0.001469
809.0185	0.001279
812.0956	0.000285
815.1742	0.000201
818.2542	0.000349
821.3357	-0.000899
824.4186	-0.000941
827.5029	-0.000687
830.5887	-0.000307
833.6759	0.000856
836.7646	0.000285
839.8546	0.000497
842.9461	0.000751
846.0390	0.000835
849.1333	-0.001004
852.2289	-0.001491
855.3260	-0.000476
858.4245	0.000243
861.5243	0.000560
864.6255	-0.000793
867.7281	0.000201
870.8321	0.000032
873.9374	-0.000856
877.0441	-0.000581
880.1521	-0.000032
883.2615	0.000032
886.3722	0.000433
889.4843	-0.000687
892.5977	0.000180
895.7124	-0.002463
898.8284	0.002611
901.9458	-0.000476
905.0644	-0.000433
908.1844	0.000328
911.3057	0.000391
914.4283	-0.001300
917.5521	-0.001195
920.6773	-0.000222
923.8037	-0.000307
926.9314	-0.000772
930.0604	-0.000180
933.1906	-0.000433
936.3221	-0.000095
939.4549	-0.000603
942.5889	0.000899
945.7241	0.001765
948.8606	0.000285
951.9983	-0.000476
955.1373	-0.001004
958.2775	0.001723
961.4189	0.000307
964.5615	0.001068
967.7053	0.000032
970.8504	0.000687
973.9966	0.000497
977.1440	0.000370
980.2926	0.000243
983.4424	0.000814
986.5934	0.001321
989.7456	0.000349
992.8989	-0.002273
996.0534	-0.000391
999.2090	-0.000518
1002.37	0.000603
1005.52	-0.000455
1008.68	-0.001258
1011.84	-0.000053
1015	-0.000645
1018.17	-0.000391
1021.33	-0.000518
1023.03	-0.003119