File: spectrum_2025-06-19_09-20-12.txt
# Wavelength (nm)	Intensity (a.u.)
197.7802	0.000427
200.4334	-0.000462
203.0892	0.000765
205.7475	-0.000187
208.4084	0.000427
211.0718	-0.001414
213.7376	-0.000462
216.4060	-0.000060
219.0769	0.000130
221.7503	-0.001244
224.4262	-0.000948
227.1046	-0.002006
229.7855	-0.001350
232.4688	0.000575
235.1546	0.000553
237.8429	0.000046
240.5337	0.000257
243.2269	-0.000187
245.9225	-0.000504
248.6206	0.000638
251.3212	0.002901
254.0242	-0.000187
256.7296	0.000067
259.4375	-0.000737
262.1477	-0.000102
264.8604	0.000765
267.5755	0.000511
270.2931	-0.000377
273.0130	-0.000504
275.7353	-0.000546
278.4600	-0.000504
281.1871	-0.000885
283.9166	-0.000525
286.6484	0.000955
289.3827	-0.000166
292.1193	-0.000991
294.8582	-0.000398
297.5995	-0.000123
300.3432	0.000871
303.0892	-0.000314
305.8376	0.000807
308.5883	-0.000060
311.3413	-0.000123
314.0967	0.000363
316.8543	0.000702
319.6143	-0.000779
322.3766	0.001082
325.1412	0.000977
327.9082	0.000109
330.6774	-0.000081
333.4489	-0.000377
336.2227	-0.000610
338.9987	0.000025
341.7771	0.000469
344.5577	0.000278
347.3406	-0.000991
350.1257	0.001273
352.9131	0.000130
355.7027	0.001590
358.4946	0.000977
361.2888	0.000680
364.0851	-0.000589
366.8837	-0.000018
369.6845	0.000427
372.4876	0.001251
375.2928	-0.000610
378.1003	0.000448
380.9100	0.000130
383.7219	-0.000716
386.5359	-0.001160
389.3522	-0.000377
392.1706	-0.000271
394.9912	-0.000420
397.8140	-0.001139
400.6390	0.001146
403.4661	-0.001033
406.2954	0.000511
409.1269	0.001273
411.9605	-0.000864
414.7962	-0.000631
417.6341	0.000786
420.4741	0.002436
423.3162	-0.000250
426.1605	0.001061
429.0068	0.000490
431.8553	0.001167
434.7059	0.000850
437.5586	-0.000398
440.4135	-0.000441
443.2703	0.001061
446.1293	-0.000166
448.9904	-0.000673
451.8535	0.000511
454.7188	-0.000991
457.5860	0.001823
460.4554	0.000236
463.3268	0.000088
466.2003	-0.001350
469.0758	-0.000821
471.9533	-0.000737
474.8329	-0.000377
477.7145	-0.000441
480.5982	-0.000631
483.4838	-0.001308
486.3715	-0.000018
489.2612	-0.000060
492.1529	0.000680
495.0466	-0.000060
497.9423	-0.000250
500.8400	-0.000271
503.7397	0.001526
506.6414	0.000490
509.5450	0.000215
512.4506	-0.000737
515.3582	0.000828
518.2677	-0.000927
521.1792	0.000046
524.0927	0.000638
527.0081	-0.000229
529.9254	0.000215
532.8447	-0.000229
535.7659	0.000257
538.6890	-0.000483
541.6140	0.000109
544.5410	-0.000081
547.4699	0.001675
550.4007	0.000363
553.3333	0.000300
556.2679	-0.000546
559.2044	-0.000102
562.1427	-0.000271
565.0829	0.000680
568.0250	-0.000779
570.9690	0.001696
573.9149	-0.000821
576.8626	0.000977
579.8121	-0.000441
582.7635	-0.000250
585.7167	-0.000568
588.6718	0.000194
591.6288	0.001928
594.5875	-0.000927
597.5481	-0.000271
600.5105	0.000321
603.4747	0.001019
606.4407	-0.000187
609.4085	-0.000800
612.3781	0.000173
615.3495	0.000427
618.3227	0.001230
621.2977	-0.000102
624.2745	-0.001160
627.2530	0.002055
630.2333	0.001632
633.2154	0.000490
636.1992	0.000998
639.1848	-0.000398
642.1721	0.002563
645.1612	-0.000333
648.1520	0.000356
651.1445	0.000430
654.1388	0.000281
657.1348	-0.000060
660.1325	-0.000060
663.1319	0.000341
666.1330	0.000551
669.1359	0.000046
672.1404	0.001273
675.1466	-0.000335
678.1545	0.001949
681.1641	0.000130
684.1754	0.001273
687.1883	0.000448
690.2029	-0.000589
693.2192	-0.001562
696.2371	0.000088
699.2567	-0.000081
702.2779	-0.000610
705.3008	-0.000694
708.3253	-0.001435
711.3514	-0.000906
714.3791	-0.001223
717.4085	0.001251
720.4395	0.001019
723.4721	0.000850
726.5063	0.000257
729.5421	-0.000081
732.5795	-0.001562
735.6185	-0.000546
738.6591	0.000765
741.7013	0.000363
744.7450	0.000067
747.7903	0.000046
750.8372	0.000469
753.8856	0.000575
756.9356	0.000278
759.9872	-0.001646
763.0403	-0.000504
766.0949	-0.001096
769.1510	0.001188
772.2087	-0.001837
775.2679	0.001759
778.3287	0.000300
781.3909	0.000955
784.4547	-0.001139
787.5199	0.000871
790.5867	-0.000377
793.6550	0.001146
796.7247	-0.000398
799.7959	0.001167
802.8686	0.000744
805.9428	-0.000314
809.0185	-0.001223
812.0956	-0.001541
815.1742	0.000892
818.2542	0.000405
821.3357	0.000278
824.4186	-0.000441
827.5029	-0.000694
830.5887	-0.000271
833.6759	0.001336
836.7646	0.000638
839.8546	0.001632
842.9461	0.000130
846.0390	-0.000060
849.1333	-0.000568
852.2289	-0.000356
855.3260	0.000152
858.4245	-0.000229
861.5243	0.001125
864.6255	-0.000779
867.7281	-0.000102
870.8321	-0.000314
873.9374	0.001188
877.0441	-0.000991
880.1521	0.000955
883.2615	0.000025
886.3722	-0.000441
889.4843	0.000469
892.5977	0.001928
895.7124	-0.000039
898.8284	0.001188
901.9458	0.000786
905.0644	0.000342
908.1844	-0.000039
911.3057	0.000680
914.4283	-0.000483
917.5521	-0.001075
920.6773	0.000130
923.8037	-0.000229
926.9314	-0.001435
930.0604	-0.000652
933.1906	-0.000631
936.3221	-0.000314
939.4549	0.001653
942.5889	0.000553
945.7241	0.000490
948.8606	0.000702
951.9983	0.001421
955.1373	-0.001266
958.2775	0.001865
961.4189	-0.000483
964.5615	0.001061
967.7053	-0.000568
970.8504	-0.000335
973.9966	0.000448
977.1440	0.001082
980.2926	-0.000610
983.4424	0.000596
986.5934	-0.001181
989.7456	0.000617
992.8989	-0.001879
996.0534	-0.000187
999.2090	0.000342
1002.37	0.000596
1005.52	-0.001075
1008.68	-0.001371
1011.84	0.000109
1015	-0.000610
1018.17	0.000702
1021.33	0.000173
1023.03	-0.000694