File: spectrum_2025-06-19_09-51-03.txt
# Wavelength (nm)	Intensity (a.u.)
197.7802	0.000702
200.4334	-0.000142
203.0892	-0.000100
205.7475	0.000744
208.4084	0.001335
211.0718	0.000469
213.7376	0.001081
216.4060	0.000343
219.0769	-0.000058
221.7503	0.000870
224.4262	0.000090
227.1046	-0.000522
229.7855	0.001229
232.4688	-0.000375
235.1546	0.000258
237.8429	0.001989
240.5337	0.001630
243.2269	-0.000459
245.9225	0.000301
248.6206	0.000364
251.3212	0.000828
254.0242	-0.001176
256.7296	-0.000164
259.4375	-0.000206
262.1477	0.000469
264.8604	0.000301
267.5755	0.001356
270.2931	-0.000142
273.0130	0.000512
275.7353	-0.000501
278.4600	0.000322
281.1871	-0.001134
283.9166	0.000174
286.6484	-0.000227
289.3827	0.001166
292.1193	0.000069
294.8582	0.000554
297.5995	0.001567
300.3432	0.000280
303.0892	-0.000860
305.8376	0.000659
308.5883	-0.000375
311.3413	-0.000100
314.0967	0.000870
316.8543	0.000680
319.6143	0.000280
322.3766	0.000195
325.1412	0.000575
327.9082	0.001588
330.6774	-0.000269
333.4489	0.000343
336.2227	-0.000185
338.9987	0.000090
341.7771	0.000807
344.5577	0.000448
347.3406	-0.001830
350.1257	0.000448
352.9131	0.000659
355.7027	0.000491
358.4946	0.001292
361.2888	0.000976
364.0851	0.000026
366.8837	0.000406
369.6845	-0.000016
372.4876	0.000976
375.2928	-0.000185
378.1003	0.000153
380.9100	0.000891
383.7219	0.001018
386.5359	0.001039
389.3522	0.002812
392.1706	0.005660
394.9912	0.010133
397.8140	0.015830
400.6390	0.018299
403.4661	0.020008
406.2954	0.024966
409.1269	0.027709
411.9605	0.028237
414.7962	0.029988
417.6341	0.029017
420.4741	0.032034
423.3162	0.032583
426.1605	0.031887
429.0068	0.029207
431.8553	0.029503
434.7059	0.031866
437.5586	0.028996
440.4135	0.030178
443.2703	0.034123
446.1293	0.029650
448.9904	0.028237
451.8535	0.025726
454.7188	0.023152
457.5860	0.020134
460.4554	0.021569
463.3268	0.017581
466.2003	0.015260
469.0758	0.011863
471.9533	0.011505
474.8329	0.009922
477.7145	0.007242
480.5982	0.007306
483.4838	0.005533
486.3715	0.018489
489.2612	0.005850
492.1529	0.005913
495.0466	0.004246
497.9423	0.004436
500.8400	0.003044
503.7397	0.003529
506.6414	0.004141
509.5450	0.003550
512.4506	0.002368
515.3582	0.003381
518.2677	0.002411
521.1792	0.003719
524.0927	0.004331
527.0081	0.004352
529.9254	0.005533
532.8447	0.005681
535.7659	0.008255
538.6890	0.008340
541.6140	0.011357
544.5410	0.013214
547.4699	0.017138
550.4007	0.016969
553.3333	0.023890
556.2679	0.028511
559.2044	0.024375
562.1427	0.035347
565.0829	0.040453
568.0250	0.058388
570.9690	0.111875
573.9149	0.153927
576.8626	0.184521
579.8121	0.208469
582.7635	0.267358
585.7167	0.238790
588.6718	0.198975
591.6288	0.136077
594.5875	0.175638
597.5481	0.157134
600.5105	0.188425
603.4747	0.193046
606.4407	0.162852
609.4085	0.137364
612.3781	0.132215
615.3495	0.130527
618.3227	0.109871
621.2977	0.075268
624.2745	0.088835
627.2530	0.071892
630.2333	0.063009
633.2154	0.045791
636.1992	0.043766
639.1848	0.042331
642.1721	0.030915
645.1612	0.027200
648.1520	0.030535
651.1445	0.029320
654.1388	0.035244
657.1348	0.878051
660.1325	0.062015
663.1319	0.021194
666.1330	0.024353
669.1359	0.020029
672.1404	0.031697
675.1466	0.027540
678.1545	0.030726
681.1641	0.034102
684.1754	0.032351
687.1883	0.044800
690.2029	0.033617
693.2192	0.038744
696.2371	0.029144
699.2567	0.037795
702.2779	0.030579
705.3008	0.023489
708.3253	0.038491
711.3514	0.033005
714.3791	0.035242
717.4085	0.025894
720.4395	0.028321
723.4721	0.028975
726.5063	0.033068
729.5421	0.035558
732.5795	0.039757
735.6185	0.049442
738.6591	0.041150
741.7013	0.035347
744.7450	0.028215
747.7903	0.032731
750.8372	0.039926
753.8856	0.042880
756.9356	0.048703
759.9872	0.060709
763.0403	0.049399
766.0949	0.050032
769.1510	0.048133
772.2087	0.042626
775.2679	0.029207
778.3287	0.024481
781.3909	0.033343
784.4547	0.028363
787.5199	0.029925
790.5867	0.025916
793.6550	0.022223
796.7247	0.021991
799.7959	0.023004
802.8686	0.018868
805.9428	0.019628
809.0185	0.023025
812.0956	0.015788
815.1742	0.016590
818.2542	0.015513
821.3357	0.014838
824.4186	0.012053
827.5029	0.015767
830.5887	0.009247
833.6759	0.010428
836.7646	0.007390
839.8546	0.007728
842.9461	0.004774
846.0390	0.007074
849.1333	0.005470
852.2289	0.006166
855.3260	0.013636
858.4245	0.009880
861.5243	0.006989
864.6255	0.006166
867.7281	0.006567
870.8321	0.007538
873.9374	0.004605
877.0441	0.005470
880.1521	0.006462
883.2615	0.005386
886.3722	0.006251
889.4843	0.005934
892.5977	0.005976
895.7124	0.004521
898.8284	0.004795
901.9458	0.003381
905.0644	0.004795
908.1844	0.005597
911.3057	0.004288
914.4283	0.003466
917.5521	0.004394
920.6773	0.004099
923.8037	0.002347
926.9314	0.001229
930.0604	0.002326
933.1906	0.000934
936.3221	0.001651
939.4549	0.002136
942.5889	0.001398
945.7241	0.002326
948.8606	0.001968
951.9983	0.001883
955.1373	-0.000037
958.2775	0.001250
961.4189	0.001567
964.5615	0.002052
967.7053	-0.000100
970.8504	0.000237
973.9966	0.001313
977.1440	0.000997
980.2926	-0.000100
983.4424	0.001778
986.5934	0.000280
989.7456	-0.000058
992.8989	0.001081
996.0534	0.000617
999.2090	0.000702
1002.37	0.000849
1005.52	0.001187
1008.68	0.001208
1011.84	0.000533
1015	0.001482
1018.17	0.000786
1021.33	0.000385
1023.03	0.000870