File: spectrum_2025-06-19_08-54-37.txt
# Wavelength (nm)	Intensity (a.u.)
197.7802	0.000828
200.4334	-0.000525
203.0892	0.000574
205.7475	0.000109
208.4084	0.000997
211.0718	0.000300
213.7376	-0.000462
216.4060	-0.001836
219.0769	0.000511
221.7503	0.000173
224.4262	0.000870
227.1046	-0.000377
229.7855	-0.002407
232.4688	0.000532
235.1546	-0.001688
237.8429	0.000426
240.5337	0.000596
243.2269	0.000405
245.9225	0.002583
248.6206	-0.000123
251.3212	0.000215
254.0242	-0.000800
256.7296	-0.000039
259.4375	0.000553
262.1477	0.000405
264.8604	-0.000694
267.5755	0.000870
270.2931	-0.000673
273.0130	-0.000546
275.7353	-0.000927
278.4600	0.000870
281.1871	-0.000525
283.9166	-0.000271
286.6484	-0.000081
289.3827	0.000849
292.1193	-0.000102
294.8582	-0.000060
297.5995	-0.000102
300.3432	0.000638
303.0892	-0.000144
305.8376	0.000490
308.5883	-0.000800
311.3413	0.000448
314.0967	-0.001561
316.8543	-0.000504
319.6143	-0.000166
322.3766	-0.000123
325.1412	-0.000779
327.9082	0.000786
330.6774	0.002985
333.4489	-0.000271
336.2227	-0.000927
338.9987	0.000574
341.7771	-0.000440
344.5577	0.000426
347.3406	-0.001075
350.1257	0.001209
352.9131	-0.000525
355.7027	-0.000462
358.4946	0.000849
361.2888	0.000109
364.0851	0.002266
366.8837	0.000744
369.6845	0.000025
372.4876	0.001357
375.2928	-0.001836
378.1003	0.000680
380.9100	0.000067
383.7219	-0.000948
386.5359	-0.000990
389.3522	0.000236
392.1706	-0.000060
394.9912	0.000807
397.8140	0.000617
400.6390	0.001336
403.4661	-0.000525
406.2954	0.000067
409.1269	0.001018
411.9605	-0.000525
414.7962	0.000109
417.6341	0.000278
420.4741	0.001251
423.3162	-0.000483
426.1605	-0.000588
429.0068	0.000278
431.8553	0.001441
434.7059	-0.000377
437.5586	0.001632
440.4135	0.000448
443.2703	-0.000271
446.1293	0.001103
448.9904	-0.001117
451.8535	0.000511
454.7188	-0.000356
457.5860	0.001230
460.4554	0.000511
463.3268	0.000511
466.2003	0.000342
469.0758	-0.000483
471.9533	-0.001033
474.8329	0.001061
477.7145	-0.002703
480.5982	-0.000440
483.4838	0.000342
486.3715	0.000046
489.2612	-0.000863
492.1529	-0.001202
495.0466	0.001864
497.9423	-0.000018
500.8400	-0.001244
503.7397	-0.000060
506.6414	0.000997
509.5450	-0.000398
512.4506	-0.001455
515.3582	0.002498
518.2677	-0.001223
521.1792	0.000955
524.0927	0.000152
527.0081	0.000342
529.9254	0.001040
532.8447	0.000828
535.7659	0.001230
538.6890	0.000130
541.6140	0.000786
544.5410	0.000997
547.4699	0.001378
550.4007	-0.001815
553.3333	-0.000144
556.2679	-0.000483
559.2044	0.000342
562.1427	0.000384
565.0829	0.000976
568.0250	-0.000631
570.9690	-0.000018
573.9149	0.000469
576.8626	0.000300
579.8121	0.000511
582.7635	-0.000356
585.7167	-0.000779
588.6718	0.000532
591.6288	0.001928
594.5875	-0.001033
597.5481	-0.000758
600.5105	0.000215
603.4747	-0.000356
606.4407	0.000152
609.4085	-0.000377
612.3781	-0.000758
615.3495	0.001399
618.3227	0.000278
621.2977	0.000004
624.2745	0.000997
627.2530	0.001441
630.2333	0.001399
633.2154	0.000490
636.1992	-0.000567
639.1848	-0.000419
642.1721	0.001837
645.1612	-0.001681
648.1520	0.001147
651.1445	-0.000316
654.1388	0.001883
657.1348	-0.000144
660.1325	-0.000422
663.1319	-0.000355
666.1330	0.002086
669.1359	0.000426
672.1404	0.000046
675.1466	-0.000335
678.1545	0.001420
681.1641	0.000173
684.1754	0.002498
687.1883	-0.000610
690.2029	0.000088
693.2192	0.000426
696.2371	0.000469
699.2567	0.000934
702.2779	-0.000969
705.3008	-0.000821
708.3253	0.002456
711.3514	-0.000419
714.3791	-0.000081
717.4085	0.000088
720.4395	0.000278
723.4721	0.001399
726.5063	0.000130
729.5421	0.000405
732.5795	0.000596
735.6185	0.000532
738.6591	-0.000292
741.7013	0.000067
744.7450	-0.000187
747.7903	0.000807
750.8372	-0.000440
753.8856	-0.000419
756.9356	-0.000525
759.9872	-0.001899
763.0403	-0.001751
766.0949	0.001547
769.1510	0.002668
772.2087	-0.001455
775.2679	0.000744
778.3287	-0.001244
781.3909	-0.000166
784.4547	-0.000758
787.5199	0.001230
790.5867	-0.001202
793.6550	0.001420
796.7247	-0.000863
799.7959	0.000511
802.8686	0.001082
805.9428	-0.000588
809.0185	-0.001667
812.0956	0.000194
815.1742	0.000617
818.2542	0.000997
821.3357	-0.000335
824.4186	0.000511
827.5029	0.000067
830.5887	0.000786
833.6759	0.000067
836.7646	0.000490
839.8546	0.000596
842.9461	0.000765
846.0390	0.000934
849.1333	0.000913
852.2289	-0.000440
855.3260	-0.000588
858.4245	0.000109
861.5243	0.000574
864.6255	0.000405
867.7281	-0.000398
870.8321	0.000955
873.9374	-0.000018
877.0441	-0.001096
880.1521	-0.000462
883.2615	0.001293
886.3722	-0.000377
889.4843	-0.000018
892.5977	0.001378
895.7124	0.000152
898.8284	0.000321
901.9458	-0.000271
905.0644	0.000405
908.1844	-0.000906
911.3057	-0.000356
914.4283	-0.001921
917.5521	0.000638
920.6773	-0.001286
923.8037	-0.000292
926.9314	0.000617
930.0604	0.000109
933.1906	0.000744
936.3221	-0.001033
939.4549	0.000109
942.5889	0.001399
945.7241	0.001737
948.8606	0.000469
951.9983	-0.000123
955.1373	-0.000314
958.2775	0.000004
961.4189	0.000617
964.5615	0.000828
967.7053	-0.000546
970.8504	0.000807
973.9966	0.000067
977.1440	-0.000292
980.2926	-0.000166
983.4424	0.000384
986.5934	0.000426
989.7456	-0.000990
992.8989	-0.001899
996.0534	0.001293
999.2090	0.000913
1002.37	-0.000462
1005.52	0.000448
1008.68	-0.000863
1011.84	-0.001307
1015	0.000046
1018.17	0.000469
1021.33	0.000828
1023.03	-0.003358