File: spectrum_2025-06-19_08-59-44.txt
# Wavelength (nm)	Intensity (a.u.)
197.7802	-0.000643
200.4334	-0.000241
203.0892	-0.000707
205.7475	-0.000368
208.4084	0.000943
211.0718	-0.001066
213.7376	-0.001257
216.4060	-0.000411
219.0769	0.001197
221.7503	-0.000030
224.4262	0.000604
227.1046	-0.000960
229.7855	-0.001003
232.4688	0.000795
235.1546	0.000604
237.8429	0.001641
240.5337	0.000287
243.2269	-0.000326
245.9225	0.000837
248.6206	0.000647
251.3212	0.001620
254.0242	-0.001405
256.7296	0.000287
259.4375	-0.000939
262.1477	0.001450
264.8604	-0.000030
267.5755	-0.000834
270.2931	-0.001151
273.0130	-0.001278
275.7353	-0.001722
278.4600	0.000816
281.1871	0.000118
283.9166	-0.000812
286.6484	0.000499
289.3827	-0.000791
292.1193	-0.000834
294.8582	0.000499
297.5995	-0.000136
300.3432	-0.000051
303.0892	-0.001870
305.8376	-0.000559
308.5883	-0.000770
311.3413	0.000541
314.0967	0.000266
316.8543	-0.000960
319.6143	0.000478
322.3766	-0.000580
325.1412	-0.000136
327.9082	0.001450
330.6774	-0.000559
333.4489	-0.000241
336.2227	0.000964
338.9987	-0.000326
341.7771	-0.000368
344.5577	0.000414
347.3406	-0.000368
350.1257	-0.000538
352.9131	0.000943
355.7027	0.000901
358.4946	0.000478
361.2888	-0.000220
364.0851	0.000922
366.8837	0.000499
369.6845	0.000076
372.4876	-0.000960
375.2928	-0.001680
378.1003	0.000393
380.9100	0.001535
383.7219	-0.000051
386.5359	-0.000559
389.3522	-0.000093
392.1706	-0.000241
394.9912	0.000964
397.8140	0.000478
400.6390	-0.001278
403.4661	-0.001722
406.2954	-0.000368
409.1269	0.001514
411.9605	-0.000707
414.7962	-0.000643
417.6341	0.001197
420.4741	0.000182
423.3162	-0.001658
426.1605	0.000520
429.0068	-0.001405
431.8553	0.001472
434.7059	-0.001595
437.5586	0.000626
440.4135	-0.001701
443.2703	0.000604
446.1293	0.000583
448.9904	-0.000664
451.8535	-0.001214
454.7188	0.000414
457.5860	-0.000876
460.4554	-0.001426
463.3268	-0.001193
466.2003	-0.000939
469.0758	0.000118
471.9533	-0.001045
474.8329	-0.001172
477.7145	-0.001257
480.5982	-0.000876
483.4838	0.000435
486.3715	0.000583
489.2612	-0.001172
492.1529	0.000435
495.0466	0.000160
497.9423	0.000139
500.8400	-0.000326
503.7397	0.000562
506.6414	0.000266
509.5450	0.000203
512.4506	-0.002568
515.3582	0.001027
518.2677	-0.001087
521.1792	0.000879
524.0927	0.000266
527.0081	-0.000157
529.9254	0.001154
532.8447	0.000203
535.7659	-0.000157
538.6890	-0.000834
541.6140	-0.000368
544.5410	-0.001087
547.4699	-0.001235
550.4007	-0.002610
553.3333	-0.000686
556.2679	-0.001658
559.2044	0.000308
562.1427	-0.000389
565.0829	0.000964
568.0250	-0.000580
570.9690	-0.001172
573.9149	-0.000009
576.8626	0.000139
579.8121	0.000858
582.7635	0.000499
585.7167	0.002381
588.6718	-0.001447
591.6288	-0.001193
594.5875	-0.001109
597.5481	-0.000897
600.5105	-0.001764
603.4747	0.000562
606.4407	0.000118
609.4085	-0.001426
612.3781	0.000287
615.3495	0.002085
618.3227	-0.001828
621.2977	-0.000115
624.2745	0.000689
627.2530	0.001302
630.2333	0.002487
633.2154	-0.000157
636.1992	0.000541
639.1848	-0.001172
642.1721	0.001142
645.1612	0.001339
648.1520	0.000519
651.1445	0.000204
654.1388	0.001530
657.1348	-0.000791
660.1325	0.000097
663.1319	-0.001042
666.1330	0.000980
669.1359	-0.001045
672.1404	-0.001193
675.1466	-0.001151
678.1545	0.001662
681.1641	-0.000770
684.1754	0.001620
687.1883	-0.001109
690.2029	0.000499
693.2192	-0.001933
696.2371	-0.000664
699.2567	0.000541
702.2779	-0.000495
705.3008	0.001027
708.3253	-0.001743
711.3514	-0.000072
714.3791	0.000541
717.4085	0.001683
720.4395	0.000330
723.4721	0.000097
726.5063	-0.000220
729.5421	0.001895
732.5795	0.000308
735.6185	-0.000389
738.6591	-0.000897
741.7013	0.000647
744.7450	-0.000136
747.7903	-0.000495
750.8372	-0.000918
753.8856	0.000245
756.9356	-0.000115
759.9872	-0.001193
763.0403	-0.000538
766.0949	-0.002018
769.1510	0.000795
772.2087	0.000182
775.2679	0.000964
778.3287	0.000816
781.3909	0.001239
784.4547	0.000351
787.5199	0.001027
790.5867	-0.000241
793.6550	0.001239
796.7247	-0.000263
799.7959	-0.000199
802.8686	-0.001193
805.9428	0.000731
809.0185	-0.000559
812.0956	-0.001066
815.1742	0.000795
818.2542	-0.000411
821.3357	-0.000326
824.4186	0.001239
827.5029	-0.000939
830.5887	-0.001109
833.6759	0.001831
836.7646	0.000456
839.8546	-0.000347
842.9461	-0.000093
846.0390	-0.000960
849.1333	-0.001172
852.2289	-0.000178
855.3260	-0.000897
858.4245	0.002254
861.5243	0.000224
864.6255	0.000033
867.7281	-0.001426
870.8321	0.000731
873.9374	-0.000897
877.0441	-0.000411
880.1521	-0.000115
883.2615	-0.001257
886.3722	-0.000876
889.4843	0.000499
892.5977	-0.000115
895.7124	-0.001024
898.8284	0.001027
901.9458	0.000710
905.0644	0.000879
908.1844	-0.000559
911.3057	0.001049
914.4283	0.000520
917.5521	0.000224
920.6773	0.000351
923.8037	-0.001130
926.9314	-0.000474
930.0604	0.000139
933.1906	-0.000199
936.3221	-0.000812
939.4549	-0.000749
942.5889	0.000033
945.7241	0.000668
948.8606	-0.000474
951.9983	0.000055
955.1373	-0.000728
958.2775	0.000626
961.4189	-0.000389
964.5615	-0.000411
967.7053	-0.002420
970.8504	-0.000601
973.9966	0.000287
977.1440	0.000287
980.2926	0.000012
983.4424	0.000604
986.5934	-0.000326
989.7456	-0.001087
992.8989	-0.001743
996.0534	-0.001003
999.2090	0.000604
1002.37	0.001387
1005.52	-0.000855
1008.68	-0.000157
1011.84	0.000435
1015	-0.000368
1018.17	0.000076
1021.33	-0.000347
1023.03	-0.001172