File: spectrum_2025-06-19_09-56-10.txt
# Wavelength (nm)	Intensity (a.u.)
197.7802	-0.000436
200.4334	-0.000795
203.0892	0.000788
205.7475	0.000556
208.4084	0.001442
211.0718	0.000070
213.7376	0.000049
216.4060	0.000113
219.0769	-0.000584
221.7503	-0.000099
224.4262	0.000303
227.1046	-0.001428
229.7855	0.000683
232.4688	0.000007
235.1546	0.001421
237.8429	0.000176
240.5337	0.000915
243.2269	0.000493
245.9225	0.000366
248.6206	0.000408
251.3212	0.001189
254.0242	0.000197
256.7296	0.000134
259.4375	0.000007
262.1477	-0.000099
264.8604	-0.002209
267.5755	0.001379
270.2931	-0.000478
273.0130	0.001084
275.7353	-0.000162
278.4600	-0.000563
281.1871	-0.000753
283.9166	-0.000690
286.6484	0.000197
289.3827	0.001400
292.1193	0.000936
294.8582	0.001717
297.5995	0.000619
300.3432	0.000113
303.0892	0.000028
305.8376	-0.000626
308.5883	0.000176
311.3413	-0.000310
314.0967	0.000830
316.8543	0.002329
319.6143	-0.000943
322.3766	-0.000943
325.1412	-0.000922
327.9082	-0.001133
330.6774	-0.000077
333.4489	-0.000288
336.2227	-0.001091
338.9987	-0.000394
341.7771	0.001168
344.5577	-0.000183
347.3406	-0.000288
350.1257	0.000408
352.9131	-0.000795
355.7027	-0.000225
358.4946	0.001084
361.2888	-0.000795
364.0851	-0.000584
366.8837	0.000830
369.6845	0.000197
372.4876	0.000661
375.2928	0.000155
378.1003	0.000577
380.9100	0.001063
383.7219	-0.000077
386.5359	0.002540
389.3522	0.003765
392.1706	0.006445
394.9912	0.008092
397.8140	0.014509
400.6390	0.019449
403.4661	0.020736
406.2954	0.024494
409.1269	0.025908
411.9605	0.028927
414.7962	0.026520
417.6341	0.028399
420.4741	0.033465
423.3162	0.034901
426.1605	0.028906
429.0068	0.030383
431.8553	0.031967
434.7059	0.031903
437.5586	0.029581
440.4135	0.029075
443.2703	0.032663
446.1293	0.029729
448.9904	0.029433
451.8535	0.024452
454.7188	0.019470
457.5860	0.019554
460.4554	0.017380
463.3268	0.016409
466.2003	0.016430
469.0758	0.011554
471.9533	0.009886
474.8329	0.009907
477.7145	0.006656
480.5982	0.007902
483.4838	0.005305
486.3715	0.015902
489.2612	0.004334
492.1529	0.003638
495.0466	0.002941
497.9423	0.003807
500.8400	0.003026
503.7397	0.002118
506.6414	0.004398
509.5450	0.001210
512.4506	0.002287
515.3582	0.002878
518.2677	0.004229
521.1792	0.003722
524.0927	0.004503
527.0081	0.003786
529.9254	0.005601
532.8447	0.005981
535.7659	0.007965
538.6890	0.008451
541.6140	0.012525
544.5410	0.014699
547.4699	0.018457
550.4007	0.018900
553.3333	0.021053
556.2679	0.024916
559.2044	0.025718
562.1427	0.036210
565.0829	0.040558
568.0250	0.058438
570.9690	0.113428
573.9149	0.157947
576.8626	0.185368
579.8121	0.212958
582.7635	0.264613
585.7167	0.237635
588.6718	0.202467
591.6288	0.135972
594.5875	0.172787
597.5481	0.152839
600.5105	0.184946
603.4747	0.188577
606.4407	0.166138
609.4085	0.135403
612.3781	0.129133
615.3495	0.130547
618.3227	0.111697
621.2977	0.074586
624.2745	0.088476
627.2530	0.070766
630.2333	0.060675
633.2154	0.047271
636.1992	0.045202
639.1848	0.042141
642.1721	0.032144
645.1612	0.028987
648.1520	0.029102
651.1445	0.030315
654.1388	0.033854
657.1348	0.873034
660.1325	0.059965
663.1319	0.021121
666.1330	0.023442
669.1359	0.020905
672.1404	0.034373
675.1466	0.028251
678.1545	0.028399
681.1641	0.034352
684.1754	0.032178
687.1883	0.043936
690.2029	0.034141
693.2192	0.038511
696.2371	0.030383
699.2567	0.038194
702.2779	0.029898
705.3008	0.026563
708.3253	0.039418
711.3514	0.032431
714.3791	0.035555
717.4085	0.028230
720.4395	0.028674
723.4721	0.028842
726.5063	0.032558
729.5421	0.036632
732.5795	0.043302
735.6185	0.047651
738.6591	0.040854
741.7013	0.034373
744.7450	0.028990
747.7903	0.031143
750.8372	0.038384
753.8856	0.044400
756.9356	0.050860
759.9872	0.061098
763.0403	0.049804
766.0949	0.051049
769.1510	0.050543
772.2087	0.038278
775.2679	0.032030
778.3287	0.025782
781.3909	0.034901
784.4547	0.031650
787.5199	0.030172
790.5867	0.025570
793.6550	0.023903
796.7247	0.021264
799.7959	0.021560
802.8686	0.016451
805.9428	0.019723
809.0185	0.021813
812.0956	0.018351
815.1742	0.016958
818.2542	0.015142
821.3357	0.014615
824.4186	0.010414
827.5029	0.015079
830.5887	0.010646
833.6759	0.010140
836.7646	0.008176
839.8546	0.008176
842.9461	0.005474
846.0390	0.007079
849.1333	0.004482
852.2289	0.006340
855.3260	0.012989
858.4245	0.009527
861.5243	0.006023
864.6255	0.005327
867.7281	0.004567
870.8321	0.006213
873.9374	0.004651
877.0441	0.006277
880.1521	0.007079
883.2615	0.007058
886.3722	0.007712
889.4843	0.003828
892.5977	0.006403
895.7124	0.005137
898.8284	0.004926
901.9458	0.003511
905.0644	0.005875
908.1844	0.003849
911.3057	0.004187
914.4283	0.002477
917.5521	0.004503
920.6773	0.002540
923.8037	0.001632
926.9314	0.001421
930.0604	0.003216
933.1906	0.001379
936.3221	0.001442
939.4549	0.002076
942.5889	0.001379
945.7241	0.001020
948.8606	0.001316
951.9983	0.001105
955.1373	-0.000014
958.2775	0.000239
961.4189	-0.000563
964.5615	0.001421
967.7053	-0.001639
970.8504	0.002012
973.9966	-0.000373
977.1440	0.001210
980.2926	0.000091
983.4424	0.000535
986.5934	-0.000626
989.7456	-0.000500
992.8989	-0.000732
996.0534	0.000598
999.2090	-0.000415
1002.37	0.000113
1005.52	-0.000964
1008.68	0.000239
1011.84	0.000640
1015	-0.000225
1018.17	0.000535
1021.33	-0.001027
1023.03	-0.000014