File: spectrum_2025-06-19_09-04-51.txt
# Wavelength (nm)	Intensity (a.u.)
197.7802	0.001003
200.4334	0.000495
203.0892	-0.000922
205.7475	0.000559
208.4084	0.002018
211.0718	0.000284
213.7376	-0.001387
216.4060	-0.000858
219.0769	0.000664
221.7503	0.000389
224.4262	0.000093
227.1046	-0.001239
229.7855	-0.000837
232.4688	0.000051
235.1546	0.000136
237.8429	0.000051
240.5337	0.000051
243.2269	-0.000435
245.9225	0.000749
248.6206	-0.001112
251.3212	0.001489
254.0242	0.000051
256.7296	-0.000583
259.4375	-0.000456
262.1477	0.000876
264.8604	0.001108
267.5755	-0.000668
270.2931	0.000284
273.0130	-0.001704
275.7353	-0.000795
278.4600	0.000537
281.1871	-0.001070
283.9166	-0.000626
286.6484	-0.000922
289.3827	0.001320
292.1193	-0.000414
294.8582	0.000622
297.5995	0.000897
300.3432	-0.001408
303.0892	-0.001112
305.8376	-0.000033
308.5883	-0.000182
311.3413	-0.000033
314.0967	-0.000710
316.8543	0.001870
319.6143	0.001870
322.3766	-0.000435
325.1412	-0.000033
327.9082	-0.000541
330.6774	0.000939
333.4489	-0.001027
336.2227	-0.000795
338.9987	-0.000541
341.7771	-0.000139
344.5577	0.000791
347.3406	-0.000393
350.1257	0.001024
352.9131	0.001574
355.7027	0.001764
358.4946	-0.000203
361.2888	0.001151
364.0851	0.000770
366.8837	-0.000689
369.6845	-0.000901
372.4876	-0.000182
375.2928	-0.000985
378.1003	-0.000668
380.9100	0.001637
383.7219	0.001320
386.5359	0.000918
389.3522	-0.000287
392.1706	-0.000774
394.9912	0.000368
397.8140	0.000263
400.6390	0.001933
403.4661	-0.001641
406.2954	0.000178
409.1269	0.000115
411.9605	0.000178
414.7962	0.000093
417.6341	-0.000435
420.4741	-0.000499
423.3162	-0.000456
426.1605	0.001235
429.0068	0.001531
431.8553	-0.001514
434.7059	-0.000562
437.5586	0.000157
440.4135	0.000411
443.2703	0.000389
446.1293	0.000009
448.9904	0.000728
451.8535	0.000474
454.7188	-0.000287
457.5860	0.001912
460.4554	0.000897
463.3268	-0.000203
466.2003	-0.001006
469.0758	-0.000203
471.9533	0.000622
474.8329	0.000897
477.7145	-0.000795
480.5982	0.000495
483.4838	-0.001493
486.3715	0.000897
489.2612	-0.000139
492.1529	-0.001535
495.0466	-0.000266
497.9423	0.000432
500.8400	0.001933
503.7397	-0.001514
506.6414	-0.000541
509.5450	0.000559
512.4506	0.000876
515.3582	0.000918
518.2677	0.000009
521.1792	-0.000372
524.0927	-0.000055
527.0081	0.000664
529.9254	-0.000943
532.8447	-0.001366
535.7659	-0.001112
538.6890	-0.000456
541.6140	-0.000118
544.5410	-0.001154
547.4699	0.001320
550.4007	-0.001852
553.3333	-0.000901
556.2679	0.002293
559.2044	-0.000203
562.1427	0.001024
565.0829	-0.002296
568.0250	-0.000097
570.9690	-0.000689
573.9149	0.000474
576.8626	0.000284
579.8121	-0.001133
582.7635	0.000559
585.7167	0.000516
588.6718	-0.001175
591.6288	-0.001979
594.5875	-0.001027
597.5481	-0.001958
600.5105	0.001362
603.4747	-0.001302
606.4407	0.000453
609.4085	0.000093
612.3781	0.001468
615.3495	-0.001831
618.3227	0.001658
621.2977	-0.001535
624.2745	-0.000203
627.2530	0.000305
630.2333	-0.000287
633.2154	-0.001302
636.1992	-0.000160
639.1848	0.001130
642.1721	-0.000972
645.1612	0.001200
648.1520	-0.000387
651.1445	0.000926
654.1388	0.001462
657.1348	-0.001767
660.1325	-0.000204
663.1319	0.003931
666.1330	-0.000096
669.1359	-0.000182
672.1404	0.000495
675.1466	-0.000710
678.1545	0.001870
681.1641	-0.000964
684.1754	-0.000308
687.1883	0.000326
690.2029	0.001214
693.2192	-0.000520
696.2371	0.000093
699.2567	0.002250
702.2779	-0.000351
705.3008	-0.000414
708.3253	-0.001133
711.3514	0.001595
714.3791	-0.000816
717.4085	-0.000393
720.4395	-0.000118
723.4721	-0.000224
726.5063	0.000453
729.5421	0.000220
732.5795	-0.000012
735.6185	-0.000689
738.6591	0.000030
741.7013	0.000284
744.7450	0.000178
747.7903	-0.000033
750.8372	0.000728
753.8856	-0.000478
756.9356	-0.000203
759.9872	-0.000118
763.0403	0.000389
766.0949	-0.000076
769.1510	-0.001366
772.2087	-0.000943
775.2679	0.000241
778.3287	0.000664
781.3909	0.000474
784.4547	0.000199
787.5199	-0.002127
790.5867	0.000537
793.6550	-0.000097
796.7247	-0.001471
799.7959	0.000897
802.8686	-0.001535
805.9428	-0.000118
809.0185	0.001151
812.0956	-0.001641
815.1742	0.000030
818.2542	-0.000182
821.3357	-0.001810
824.4186	0.001172
827.5029	-0.001916
830.5887	-0.000668
833.6759	0.000178
836.7646	0.000009
839.8546	0.000495
842.9461	0.001214
846.0390	-0.000922
849.1333	0.000305
852.2289	-0.000055
855.3260	0.001003
858.4245	-0.000033
861.5243	-0.000203
864.6255	0.000241
867.7281	0.000157
870.8321	-0.001112
873.9374	-0.001810
877.0441	0.000284
880.1521	0.001066
883.2615	0.000960
886.3722	0.000093
889.4843	-0.000520
892.5977	-0.000308
895.7124	0.000855
898.8284	-0.000922
901.9458	0.000537
905.0644	-0.000372
908.1844	-0.000626
911.3057	0.000495
914.4283	0.000580
917.5521	-0.001091
920.6773	0.000791
923.8037	-0.000076
926.9314	-0.001239
930.0604	-0.001789
933.1906	-0.000139
936.3221	-0.000139
939.4549	-0.000520
942.5889	0.000812
945.7241	-0.000541
948.8606	-0.001514
951.9983	0.000580
955.1373	0.000157
958.2775	0.000939
961.4189	-0.000245
964.5615	-0.000858
967.7053	0.000157
970.8504	-0.000160
973.9966	-0.000858
977.1440	-0.001894
980.2926	0.001278
983.4424	-0.000266
986.5934	0.000664
989.7456	-0.000351
992.8989	-0.000541
996.0534	0.001214
999.2090	0.000136
1002.37	0.000199
1005.52	-0.000626
1008.68	0.001320
1011.84	-0.000182
1015	0.000939
1018.17	-0.000012
1021.33	0.001087
1023.03	-0.004073