File: Auto_Polymerization/Spectra/MRG-061-F-4_spectra_while_stopped/spectrum_2025-06-20_07-40-46.txt
# Wavelength (nm)	Intensity (a.u.)
197.7802	0.000316
200.4334	0.001350
203.0892	0.000105
205.7475	-0.000970
208.4084	0.001498
211.0718	-0.000232
213.7376	0.001413
216.4060	0.000612
219.0769	0.001561
221.7503	0.000548
224.4262	0.000759
227.1046	-0.001582
229.7855	-0.000084
232.4688	0.001498
235.1546	0.000422
237.8429	-0.000105
240.5337	0.000148
243.2269	0.000717
245.9225	0.000211
248.6206	-0.000316
251.3212	0.002594
254.0242	0.001540
256.7296	-0.000907
259.4375	0.000169
262.1477	0.000591
264.8604	-0.000148
267.5755	0.000569
270.2931	0.000316
273.0130	0.000042
275.7353	0.001076
278.4600	0.000232
281.1871	0.001076
283.9166	0.001139
286.6484	-0.001012
289.3827	0.000380
292.1193	0.000190
294.8582	-0.000485
297.5995	0.000738
300.3432	0.000422
303.0892	0.000738
305.8376	0.000780
308.5883	0.000274
311.3413	0.000780
314.0967	-0.001223
316.8543	0.000401
319.6143	-0.001181
322.3766	0.000380
325.1412	-0.000865
327.9082	0.001244
330.6774	0.000865
333.4489	0.001097
336.2227	-0.000042
338.9987	0.000801
341.7771	-0.000063
344.5577	0.000422
347.3406	0.000485
350.1257	0.000759
352.9131	-0.000337
355.7027	0.000190
358.4946	0.001350
361.2888	0.001076
364.0851	-0.000084
366.8837	0.001350
369.6845	0.001645
372.4876	0.001371
375.2928	0.000823
378.1003	0.000485
380.9100	0.001012
383.7219	-0.000063
386.5359	0.000949
389.3522	0.002151
392.1706	0.005294
394.9912	0.006770
397.8140	0.010145
400.6390	0.012275
403.4661	0.013435
406.2954	0.018476
409.1269	0.017886
411.9605	0.018033
414.7962	0.018223
417.6341	0.018814
420.4741	0.020649
423.3162	0.022083
426.1605	0.021978
429.0068	0.020501
431.8553	0.020185
434.7059	0.021282
437.5586	0.020206
440.4135	0.019721
443.2703	0.021598
446.1293	0.019193
448.9904	0.018856
451.8535	0.017084
454.7188	0.015502
457.5860	0.014511
460.4554	0.013414
463.3268	0.010968
466.2003	0.013014
469.0758	0.008542
471.9533	0.007445
474.8329	0.006960
477.7145	0.005421
480.5982	0.005041
483.4838	0.004408
486.3715	0.011748
489.2612	0.003628
492.1529	0.003923
495.0466	0.003122
497.9423	0.002763
500.8400	0.002088
503.7397	0.002215
506.6414	0.002721
509.5450	0.001793
512.4506	0.003501
515.3582	0.003332
518.2677	0.001582
521.1792	0.004029
524.0927	0.003543
527.0081	0.002932
529.9254	0.003290
532.8447	0.003396
535.7659	0.005378
538.6890	0.006391
541.6140	0.008036
544.5410	0.010229
547.4699	0.012064
550.4007	0.012402
553.3333	0.015566
556.2679	0.019911
559.2044	0.018476
562.1427	0.024656
565.0829	0.029845
568.0250	0.041319
570.9690	0.079790
573.9149	0.112060
576.8626	0.130389
579.8121	0.147705
582.7635	0.185670
585.7167	0.170168
588.6718	0.141968
591.6288	0.093774
594.5875	0.120581
597.5481	0.105100
600.5105	0.130832
603.4747	0.136084
606.4407	0.115857
609.4085	0.095693
612.3781	0.093563
615.3495	0.091981
618.3227	0.076985
621.2977	0.053573
624.2745	0.061419
627.2530	0.051105
630.2333	0.043365
633.2154	0.032481
636.1992	0.031279
639.1848	0.029950
642.1721	0.022541
645.1612	0.018265
648.1520	0.019110
651.1445	0.021770
654.1388	0.025274
657.1348	0.619902
660.1325	0.031375
663.1319	0.016196
666.1330	0.016638
669.1359	0.014005
672.1404	0.021492
675.1466	0.017991
678.1545	0.021197
681.1641	0.026175
684.1754	0.025521
687.1883	0.030435
690.2029	0.026006
693.2192	0.029381
696.2371	0.020143
699.2567	0.026006
702.2779	0.021134
705.3008	0.018582
708.3253	0.027925
711.3514	0.023053
714.3791	0.024741
717.4085	0.020902
720.4395	0.020881
723.4721	0.020586
726.5063	0.024466
729.5421	0.027356
732.5795	0.029760
735.6185	0.036004
738.6591	0.028811
741.7013	0.024635
744.7450	0.022885
747.7903	0.022357
750.8372	0.031975
753.8856	0.031152
756.9356	0.037375
759.9872	0.044799
763.0403	0.037796
766.0949	0.035666
769.1510	0.035497
772.2087	0.031342
775.2679	0.022041
778.3287	0.018645
781.3909	0.026154
784.4547	0.022547
787.5199	0.021324
790.5867	0.018371
793.6550	0.016894
796.7247	0.016262
799.7959	0.015291
802.8686	0.010145
805.9428	0.014532
809.0185	0.017063
812.0956	0.011115
815.1742	0.012528
818.2542	0.010883
821.3357	0.012191
824.4186	0.006897
827.5029	0.009976
830.5887	0.009196
833.6759	0.007171
836.7646	0.005083
839.8546	0.005125
842.9461	0.003543
846.0390	0.005589
849.1333	0.004640
852.2289	0.004788
855.3260	0.010461
858.4245	0.007213
861.5243	0.004935
864.6255	0.004661
867.7281	0.004619
870.8321	0.005969
873.9374	0.003206
877.0441	0.004450
880.1521	0.005842
883.2615	0.004345
886.3722	0.004978
889.4843	0.002172
892.5977	0.003818
895.7124	0.003670
898.8284	0.003185
901.9458	0.003775
905.0644	0.004387
908.1844	0.003058
911.3057	0.002383
914.4283	0.001266
917.5521	0.002594
920.6773	0.002658
923.8037	0.003375
926.9314	0.002468
930.0604	0.001708
933.1906	0.001835
936.3221	0.001223
939.4549	0.001498
942.5889	-0.000253
945.7241	0.001835
948.8606	0.001118
951.9983	0.001814
955.1373	0.000127
958.2775	-0.000105
961.4189	-0.000232
964.5615	0.001856
967.7053	-0.000169
970.8504	0.000991
973.9966	0.001434
977.1440	-0.000801
980.2926	0.000949
983.4424	0.000970
986.5934	0.001097
989.7456	0.001139
992.8989	-0.001603
996.0534	-0.000633
999.2090	0.001139
1002.37	0.000759
1005.52	0.001730
1008.68	-0.000105
1011.84	-0.001202
1015	-0.000211
1018.17	0.000738
1021.33	0.000084
1023.03	-0.000823