File: Auto_Polymerization/Spectra/MRG-061-F-4_spectra_while_stopped/spectrum_2025-06-20_08-08-22.txt
# Wavelength (nm)	Intensity (a.u.)
197.7802	0.000202
200.4334	0.000434
203.0892	0.000076
205.7475	0.000434
208.4084	0.000793
211.0718	0.000687
213.7376	0.000835
216.4060	0.000371
219.0769	0.000666
221.7503	-0.000473
224.4262	-0.000937
227.1046	0.001088
229.7855	0.000265
232.4688	-0.000156
235.1546	0.000582
237.8429	-0.000620
240.5337	0.000329
243.2269	-0.000156
245.9225	0.001046
248.6206	0.000223
251.3212	0.000118
254.0242	-0.000768
256.7296	0.000181
259.4375	0.000518
262.1477	0.000603
264.8604	0.001004
267.5755	0.001046
270.2931	-0.000768
273.0130	0.000476
275.7353	0.001025
278.4600	0.000983
281.1871	0.000076
283.9166	0.001636
286.6484	-0.000473
289.3827	-0.000030
292.1193	-0.000810
294.8582	-0.000958
297.5995	0.000603
300.3432	0.000983
303.0892	-0.000093
305.8376	0.000518
308.5883	0.000244
311.3413	0.001826
314.0967	0.000265
316.8543	0.000286
319.6143	0.000940
322.3766	0.000645
325.1412	0.000308
327.9082	-0.000367
330.6774	0.000033
333.4489	0.000603
336.2227	-0.000199
338.9987	0.001489
341.7771	0.000097
344.5577	0.001573
347.3406	0.000772
350.1257	0.000582
352.9131	-0.000114
355.7027	0.000350
358.4946	0.000540
361.2888	0.000455
364.0851	-0.001570
366.8837	0.000708
369.6845	-0.000135
372.4876	0.001383
375.2928	0.000645
378.1003	0.000308
380.9100	-0.001169
383.7219	0.001004
386.5359	0.001130
389.3522	0.003007
392.1706	0.003619
394.9912	0.007394
397.8140	0.009503
400.6390	0.014354
403.4661	0.015177
406.2954	0.017371
409.1269	0.018678
411.9605	0.019248
414.7962	0.021905
417.6341	0.022897
420.4741	0.025828
423.3162	0.025427
426.1605	0.022011
429.0068	0.023803
431.8553	0.023234
434.7059	0.024394
437.5586	0.022158
440.4135	0.021378
443.2703	0.024837
446.1293	0.023867
448.9904	0.022433
451.8535	0.020260
454.7188	0.017813
457.5860	0.017349
460.4554	0.014755
463.3268	0.014249
466.2003	0.014144
469.0758	0.009946
471.9533	0.007436
474.8329	0.007479
477.7145	0.006698
480.5982	0.008470
483.4838	0.004273
486.3715	0.013785
489.2612	0.004378
492.1529	0.004863
495.0466	0.001974
497.9423	0.003914
500.8400	0.002459
503.7397	0.003197
506.6414	0.001615
509.5450	0.003113
512.4506	0.002585
515.3582	0.003303
518.2677	0.002100
521.1792	0.002691
524.0927	0.002543
527.0081	0.001468
529.9254	0.005391
532.8447	0.004294
535.7659	0.006002
538.6890	0.006656
541.6140	0.009503
544.5410	0.012604
547.4699	0.014776
550.4007	0.015029
553.3333	0.018573
556.2679	0.020787
559.2044	0.021104
562.1427	0.026145
565.0829	0.034497
568.0250	0.047194
570.9690	0.088449
573.9149	0.127658
576.8626	0.148264
579.8121	0.162859
582.7635	0.209324
585.7167	0.192219
588.6718	0.161594
591.6288	0.107241
594.5875	0.137697
597.5481	0.122554
600.5105	0.152166
603.4747	0.151133
606.4407	0.131180
609.4085	0.106398
612.3781	0.103234
615.3495	0.105955
618.3227	0.083049
621.2977	0.060608
624.2745	0.069867
627.2530	0.056769
630.2333	0.046160
633.2154	0.036058
636.1992	0.033042
639.1848	0.033189
642.1721	0.025487
645.1612	0.020631
648.1520	0.025572
651.1445	0.021867
654.1388	0.028120
657.1348	0.704354
660.1325	0.035948
663.1319	0.015850
666.1330	0.019042
669.1359	0.016105
672.1404	0.028422
675.1466	0.022011
678.1545	0.022854
681.1641	0.027916
684.1754	0.026398
687.1883	0.035024
690.2029	0.027136
693.2192	0.031354
696.2371	0.023550
699.2567	0.027178
702.2779	0.023044
705.3008	0.020344
708.3253	0.032113
711.3514	0.025322
714.3791	0.027642
717.4085	0.023550
720.4395	0.022601
723.4721	0.022454
726.5063	0.026187
729.5421	0.028401
732.5795	0.034518
735.6185	0.038167
738.6591	0.034581
741.7013	0.027916
744.7450	0.025849
747.7903	0.025976
750.8372	0.033674
753.8856	0.034370
756.9356	0.041225
759.9872	0.049451
763.0403	0.040276
766.0949	0.042364
769.1510	0.039137
772.2087	0.032788
775.2679	0.025406
778.3287	0.020893
781.3909	0.028380
784.4547	0.023192
787.5199	0.022306
790.5867	0.020429
793.6550	0.018594
796.7247	0.018151
799.7959	0.016970
802.8686	0.014818
805.9428	0.016105
809.0185	0.018130
812.0956	0.012224
815.1742	0.013658
818.2542	0.010284
821.3357	0.011317
824.4186	0.011592
827.5029	0.010305
830.5887	0.009208
833.6759	0.007943
836.7646	0.008597
839.8546	0.006909
842.9461	0.004020
846.0390	0.005306
849.1333	0.004652
852.2289	0.005222
855.3260	0.010368
858.4245	0.006319
861.5243	0.006171
864.6255	0.004969
867.7281	0.004357
870.8321	0.005159
873.9374	0.003745
877.0441	0.005159
880.1521	0.007415
883.2615	0.005602
886.3722	0.005749
889.4843	0.003028
892.5977	0.003977
895.7124	0.003788
898.8284	0.003851
901.9458	0.003387
905.0644	0.003366
908.1844	0.004315
911.3057	0.002585
914.4283	0.002649
917.5521	0.003429
920.6773	0.002733
923.8037	0.001911
926.9314	0.001299
930.0604	0.000983
933.1906	0.001615
936.3221	0.002522
939.4549	0.000940
942.5889	0.001362
945.7241	0.000814
948.8606	0.002670
951.9983	0.002396
955.1373	0.001362
958.2775	0.001088
961.4189	0.000329
964.5615	0.000877
967.7053	0.000772
970.8504	0.000054
973.9966	-0.000431
977.1440	0.000076
980.2926	-0.001084
983.4424	0.000666
986.5934	0.000814
989.7456	-0.000452
992.8989	0.000877
996.0534	0.000308
999.2090	-0.000726
1002.37	0.001447
1005.52	0.000076
1008.68	0.001784
1011.84	0.000392
1015	0.000223
1018.17	-0.000536
1021.33	-0.000452
1023.03	-0.000262