File: Auto_Polymerization/Spectra/MRG-061-F-4_spectra_while_stopped/spectrum_2025-06-20_08-03-15.txt
# Wavelength (nm)	Intensity (a.u.)
197.7802	0.001790
200.4334	0.001137
203.0892	0.000209
205.7475	0.000694
208.4084	0.000546
211.0718	0.000631
213.7376	0.001263
216.4060	0.000083
219.0769	0.000441
221.7503	0.000251
224.4262	0.000652
227.1046	-0.000634
229.7855	0.000884
232.4688	0.002402
235.1546	0.002486
237.8429	0.001179
240.5337	0.001242
243.2269	0.001052
245.9225	0.000525
248.6206	0.000251
251.3212	0.001601
254.0242	0.000230
256.7296	0.000884
259.4375	0.000926
262.1477	0.000968
264.8604	0.001369
267.5755	0.001179
270.2931	0.000652
273.0130	0.001242
275.7353	0.000272
278.4600	0.001706
281.1871	0.000357
283.9166	0.001179
286.6484	0.000019
289.3827	0.001010
292.1193	0.000652
294.8582	0.001622
297.5995	0.000631
300.3432	0.001284
303.0892	0.000462
305.8376	0.000589
308.5883	0.001917
311.3413	0.000483
314.0967	-0.000360
316.8543	0.001263
319.6143	-0.000192
322.3766	0.000378
325.1412	0.001769
327.9082	0.000778
330.6774	0.000884
333.4489	0.000441
336.2227	0.000504
338.9987	0.001811
341.7771	-0.000698
344.5577	-0.000655
347.3406	0.000504
350.1257	-0.000571
352.9131	0.000715
355.7027	0.000673
358.4946	0.000820
361.2888	0.000673
364.0851	-0.000255
366.8837	0.001137
369.6845	0.000884
372.4876	0.001369
375.2928	0.002107
378.1003	0.000736
380.9100	0.001432
383.7219	0.001242
386.5359	-0.000297
389.3522	0.003182
392.1706	0.004847
394.9912	0.008537
397.8140	0.010814
400.6390	0.013365
403.4661	0.015832
406.2954	0.020048
409.1269	0.020470
411.9605	0.020829
414.7962	0.021630
417.6341	0.023527
420.4741	0.024645
423.3162	0.024855
426.1605	0.022431
429.0068	0.025488
431.8553	0.024898
434.7059	0.023759
437.5586	0.024455
440.4135	0.025235
443.2703	0.026416
446.1293	0.025087
448.9904	0.022789
451.8535	0.020786
454.7188	0.017961
457.5860	0.017097
460.4554	0.015494
463.3268	0.014630
466.2003	0.013007
469.0758	0.009317
471.9533	0.010013
474.8329	0.009760
477.7145	0.007230
480.5982	0.007483
483.4838	0.006492
486.3715	0.016738
489.2612	0.005712
492.1529	0.003814
495.0466	0.003224
497.9423	0.004384
500.8400	0.003751
503.7397	0.003814
506.6414	0.003835
509.5450	0.002001
512.4506	0.003245
515.3582	0.002170
518.2677	0.003582
521.1792	0.003034
524.0927	0.003119
527.0081	0.004679
529.9254	0.006007
532.8447	0.004278
535.7659	0.007609
538.6890	0.009001
541.6140	0.009971
544.5410	0.012037
547.4699	0.014019
550.4007	0.016169
553.3333	0.018678
556.2679	0.022810
559.2044	0.021714
562.1427	0.029937
565.0829	0.033162
568.0250	0.045011
570.9690	0.088696
573.9149	0.123926
576.8626	0.141024
579.8121	0.166451
582.7635	0.234993
585.7167	0.193501
588.6718	0.168095
591.6288	0.107734
594.5875	0.143217
597.5481	0.121480
600.5105	0.150406
603.4747	0.149774
606.4407	0.143997
609.4085	0.114101
612.3781	0.106385
615.3495	0.102421
618.3227	0.091479
621.2977	0.066896
624.2745	0.072588
627.2530	0.055827
630.2333	0.052032
633.2154	0.035713
636.1992	0.035608
639.1848	0.034997
642.1721	0.027334
645.1612	0.024663
648.1520	0.022719
651.1445	0.024355
654.1388	0.026327
657.1348	0.883078
660.1325	0.057338
663.1319	0.018269
666.1330	0.020720
669.1359	0.017476
672.1404	0.025762
675.1466	0.022578
678.1545	0.024413
681.1641	0.027238
684.1754	0.026563
687.1883	0.034364
690.2029	0.028798
693.2192	0.029051
696.2371	0.024645
699.2567	0.031750
702.2779	0.025361
705.3008	0.020744
708.3253	0.030906
711.3514	0.027617
714.3791	0.029051
717.4085	0.020639
720.4395	0.022684
723.4721	0.021482
726.5063	0.030063
729.5421	0.027849
732.5795	0.035334
735.6185	0.039276
738.6591	0.033521
741.7013	0.027828
744.7450	0.025973
747.7903	0.026943
750.8372	0.033963
753.8856	0.033795
756.9356	0.042333
759.9872	0.049987
763.0403	0.041870
766.0949	0.043641
769.1510	0.041195
772.2087	0.036009
775.2679	0.027069
778.3287	0.021798
781.3909	0.026626
784.4547	0.026648
787.5199	0.023801
790.5867	0.022030
793.6550	0.020344
796.7247	0.020323
799.7959	0.018214
802.8686	0.015031
805.9428	0.015284
809.0185	0.020238
812.0956	0.013787
815.1742	0.013154
818.2542	0.011636
821.3357	0.013555
824.4186	0.010350
827.5029	0.012142
830.5887	0.009907
833.6759	0.007567
836.7646	0.007588
839.8546	0.005880
842.9461	0.005459
846.0390	0.005143
849.1333	0.005311
852.2289	0.004700
855.3260	0.012374
858.4245	0.011004
861.5243	0.004531
864.6255	0.004510
867.7281	0.004489
870.8321	0.004721
873.9374	0.006049
877.0441	0.005353
880.1521	0.006998
883.2615	0.007441
886.3722	0.005079
889.4843	0.004131
892.5977	0.005290
895.7124	0.003456
898.8284	0.003793
901.9458	0.005185
905.0644	0.003350
908.1844	0.004552
911.3057	0.003878
914.4283	0.004341
917.5521	0.005164
920.6773	0.003540
923.8037	0.002760
926.9314	0.002570
930.0604	0.001242
933.1906	0.004763
936.3221	0.002233
939.4549	0.002465
942.5889	0.002001
945.7241	0.001031
948.8606	0.001221
951.9983	0.001601
955.1373	0.002338
958.2775	0.001917
961.4189	0.000104
964.5615	0.000061
967.7053	0.001537
970.8504	0.001411
973.9966	0.000757
977.1440	0.001073
980.2926	0.000399
983.4424	0.000462
986.5934	0.001390
989.7456	0.000926
992.8989	0.000926
996.0534	0.000884
999.2090	-0.000044
1002.37	0.000631
1005.52	0.000314
1008.68	0.001516
1011.84	0.000251
1015	0.000293
1018.17	0.001558
1021.33	0.000884
1023.03	-0.000002