File: Auto_Polymerization/Spectra/MRG-061-F5_spectra_while_stopped_with_alu_foil/spectrum_2025-06-20_09-11-47.txt
# Wavelength (nm)	Intensity (a.u.)
197.7802	-0.000677
200.4334	0.000230
203.0892	-0.000761
205.7475	-0.001458
208.4084	0.000294
211.0718	-0.001141
213.7376	-0.000128
216.4060	-0.000656
219.0769	0.000336
221.7503	-0.000403
224.4262	-0.000529
227.1046	-0.000276
229.7855	-0.000297
232.4688	-0.000888
235.1546	-0.000382
237.8429	-0.000804
240.5337	-0.000445
243.2269	0.000146
245.9225	-0.000719
248.6206	0.000420
251.3212	-0.000719
254.0242	0.000652
256.7296	0.000589
259.4375	-0.000339
262.1477	0.000779
264.8604	-0.000255
267.5755	0.001538
270.2931	-0.002048
273.0130	-0.000171
275.7353	-0.000550
278.4600	0.000294
281.1871	-0.000023
283.9166	0.000378
286.6484	-0.000213
289.3827	-0.000360
292.1193	0.000336
294.8582	0.000062
297.5995	0.000062
300.3432	0.001349
303.0892	0.000441
305.8376	0.000336
308.5883	0.000673
311.3413	-0.000107
314.0967	0.000884
316.8543	0.001349
319.6143	-0.001141
322.3766	0.000547
325.1412	0.000125
327.9082	0.001327
330.6774	-0.000656
333.4489	-0.001162
336.2227	-0.000149
338.9987	0.001011
341.7771	-0.000339
344.5577	-0.000171
347.3406	-0.000192
350.1257	0.000484
352.9131	-0.000360
355.7027	-0.000656
358.4946	-0.000698
361.2888	0.000863
364.0851	-0.000846
366.8837	-0.000339
369.6845	-0.000614
372.4876	0.001306
375.2928	-0.001563
378.1003	-0.000086
380.9100	0.000040
383.7219	0.001032
386.5359	0.000695
389.3522	0.002783
392.1706	0.004598
394.9912	0.008607
397.8140	0.010189
400.6390	0.015844
403.4661	0.017004
406.2954	0.017827
409.1269	0.019768
411.9605	0.019853
414.7962	0.022511
417.6341	0.022089
420.4741	0.022659
423.3162	0.028208
426.1605	0.022300
429.0068	0.024600
431.8553	0.025423
434.7059	0.023629
437.5586	0.021963
440.4135	0.023904
443.2703	0.025402
446.1293	0.024516
448.9904	0.024431
451.8535	0.019916
454.7188	0.017257
457.5860	0.017046
460.4554	0.017152
463.3268	0.013628
466.2003	0.012447
469.0758	0.008797
471.9533	0.006877
474.8329	0.008354
477.7145	0.006877
480.5982	0.008902
483.4838	0.005505
486.3715	0.015126
489.2612	0.003079
492.1529	0.003142
495.0466	0.003121
497.9423	0.004324
500.8400	0.002425
503.7397	0.002003
506.6414	0.002804
509.5450	0.002256
512.4506	0.002045
515.3582	0.001982
518.2677	0.002298
521.1792	0.001560
524.0927	0.003775
527.0081	0.004619
529.9254	0.005146
532.8447	0.005041
535.7659	0.006497
538.6890	0.008037
541.6140	0.010717
544.5410	0.011371
547.4699	0.013882
550.4007	0.015274
553.3333	0.019051
556.2679	0.021984
559.2044	0.022195
562.1427	0.030571
565.0829	0.034559
568.0250	0.046628
570.9690	0.096148
573.9149	0.130054
576.8626	0.155099
579.8121	0.171156
582.7635	0.220803
585.7167	0.197509
588.6718	0.166493
591.6288	0.111951
594.5875	0.141638
597.5481	0.125666
600.5105	0.152778
603.4747	0.159298
606.4407	0.138705
609.4085	0.111803
612.3781	0.109947
615.3495	0.109926
618.3227	0.090303
621.2977	0.062579
624.2745	0.071187
627.2530	0.056840
630.2333	0.051607
633.2154	0.038715
636.1992	0.036795
639.1848	0.035044
642.1721	0.027908
645.1612	0.023740
648.1520	0.026972
651.1445	0.024799
654.1388	0.028116
657.1348	0.730026
660.1325	0.039470
663.1319	0.019125
666.1330	0.019119
669.1359	0.017405
672.1404	0.029136
675.1466	0.021161
678.1545	0.024051
681.1641	0.027997
684.1754	0.029706
687.1883	0.036563
690.2029	0.029685
693.2192	0.034285
696.2371	0.023967
699.2567	0.030845
702.2779	0.024959
705.3008	0.018882
708.3253	0.032597
711.3514	0.026372
714.3791	0.030212
717.4085	0.022068
720.4395	0.023566
723.4721	0.024684
726.5063	0.029073
729.5421	0.029875
732.5795	0.033631
735.6185	0.039159
738.6591	0.032259
741.7013	0.030529
744.7450	0.025212
747.7903	0.026140
750.8372	0.031837
753.8856	0.033715
756.9356	0.042661
759.9872	0.050004
763.0403	0.041353
766.0949	0.044539
769.1510	0.039243
772.2087	0.034242
775.2679	0.026668
778.3287	0.022617
781.3909	0.031436
784.4547	0.026077
787.5199	0.025571
790.5867	0.021498
793.6550	0.019958
796.7247	0.017658
799.7959	0.018629
802.8686	0.012932
805.9428	0.015738
809.0185	0.018692
812.0956	0.014789
815.1742	0.014219
818.2542	0.010653
821.3357	0.012869
824.4186	0.007636
827.5029	0.010442
830.5887	0.007045
833.6759	0.007868
836.7646	0.005611
839.8546	0.006813
842.9461	0.005104
846.0390	0.004935
849.1333	0.002847
852.2289	0.006180
855.3260	0.011835
858.4245	0.008396
861.5243	0.006054
864.6255	0.004914
867.7281	0.005062
870.8321	0.003817
873.9374	0.003374
877.0441	0.005927
880.1521	0.005315
883.2615	0.005864
886.3722	0.004598
889.4843	0.003015
892.5977	0.005231
895.7124	0.004092
898.8284	0.002699
901.9458	0.002720
905.0644	0.004218
908.1844	0.002108
911.3057	0.001918
914.4283	0.003437
917.5521	0.004281
920.6773	0.003037
923.8037	0.003079
926.9314	0.000779
930.0604	0.001834
933.1906	0.000863
936.3221	-0.000149
939.4549	0.001560
942.5889	0.000863
945.7241	0.001117
948.8606	-0.001057
951.9983	0.001264
955.1373	0.000420
958.2775	0.000673
961.4189	-0.000002
964.5615	0.000695
967.7053	0.001053
970.8504	0.000610
973.9966	0.000737
977.1440	0.000019
980.2926	0.000336
983.4424	-0.000065
986.5934	0.000251
989.7456	-0.000023
992.8989	-0.000930
996.0534	-0.000424
999.2090	-0.002280
1002.37	-0.000297
1005.52	-0.000635
1008.68	-0.000825
1011.84	0.000167
1015	0.000125
1018.17	0.000251
1021.33	0.000547
1023.03	0.000990