File: Auto_Polymerization/Spectra/MRG-061-F5_spectra_while_stopped_with_alu_foil/spectrum_2025-06-20_09-42-28.txt
# Wavelength (nm)	Intensity (a.u.)
197.7802	-0.000303
200.4334	-0.001126
203.0892	-0.000746
205.7475	-0.000936
208.4084	-0.000809
211.0718	0.000415
213.7376	-0.000007
216.4060	0.000521
219.0769	0.000141
221.7503	-0.000155
224.4262	0.000183
227.1046	0.000732
229.7855	0.000310
232.4688	0.001175
235.1546	0.000816
237.8429	0.000267
240.5337	0.001428
243.2269	0.001386
245.9225	0.000605
248.6206	-0.000366
251.3212	-0.000134
254.0242	-0.001210
256.7296	0.000141
259.4375	-0.000197
262.1477	0.000035
264.8604	-0.000788
267.5755	-0.001104
270.2931	0.000310
273.0130	-0.000324
275.7353	-0.000218
278.4600	0.001238
281.1871	0.001069
283.9166	-0.000113
286.6484	0.000141
289.3827	0.001069
292.1193	-0.001189
294.8582	-0.000028
297.5995	-0.001210
300.3432	0.000626
303.0892	-0.000514
305.8376	-0.000809
308.5883	-0.001231
311.3413	0.001323
314.0967	-0.001421
316.8543	0.000162
319.6143	-0.000197
322.3766	0.000837
325.1412	0.000310
327.9082	0.000795
330.6774	-0.000070
333.4489	0.000668
336.2227	0.000331
338.9987	-0.000366
341.7771	0.000542
344.5577	0.001048
347.3406	0.001724
350.1257	0.000457
352.9131	-0.000387
355.7027	0.000605
358.4946	-0.000471
361.2888	0.000267
364.0851	0.000246
366.8837	-0.000957
369.6845	-0.000767
372.4876	0.000267
375.2928	-0.000260
378.1003	-0.000303
380.9100	-0.001231
383.7219	-0.000176
386.5359	0.000098
389.3522	0.000816
392.1706	0.002230
394.9912	0.002526
397.8140	0.006451
400.6390	0.006620
403.4661	0.008097
406.2954	0.009891
409.1269	0.012086
411.9605	0.011959
414.7962	0.014260
417.6341	0.014471
420.4741	0.016349
423.3162	0.018734
426.1605	0.017911
429.0068	0.020296
431.8553	0.019198
434.7059	0.016370
437.5586	0.018987
440.4135	0.016244
443.2703	0.024390
446.1293	0.023229
448.9904	0.020359
451.8535	0.017805
454.7188	0.014429
457.5860	0.015357
460.4554	0.013943
463.3268	0.012107
466.2003	0.011791
469.0758	0.008329
471.9533	0.006282
474.8329	0.007548
477.7145	0.005881
480.5982	0.006240
483.4838	0.005058
486.3715	0.013458
489.2612	0.003306
492.1529	0.002568
495.0466	0.002779
497.9423	0.000964
500.8400	0.002483
503.7397	0.002884
506.6414	0.001555
509.5450	0.001301
512.4506	0.002715
515.3582	0.003391
518.2677	0.002631
521.1792	0.000732
524.0927	0.002737
527.0081	0.003560
529.9254	0.004362
532.8447	0.004678
535.7659	0.006113
538.6890	0.007000
541.6140	0.009427
544.5410	0.011833
547.4699	0.013479
550.4007	0.013542
553.3333	0.018671
556.2679	0.022849
559.2044	0.021879
562.1427	0.026859
565.0829	0.032347
568.0250	0.046656
570.9690	0.091693
573.9149	0.128394
576.8626	0.145785
579.8121	0.173158
582.7635	0.217456
585.7167	0.195170
588.6718	0.162162
591.6288	0.110582
594.5875	0.143252
597.5481	0.126326
600.5105	0.152686
603.4747	0.157814
606.4407	0.134578
609.4085	0.110899
612.3781	0.106255
615.3495	0.106108
618.3227	0.089773
621.2977	0.060965
624.2745	0.071095
627.2530	0.058284
630.2333	0.050032
633.2154	0.038784
636.1992	0.035027
639.1848	0.034900
642.1721	0.025739
645.1612	0.022373
648.1520	0.022715
651.1445	0.021989
654.1388	0.027287
657.1348	0.739136
660.1325	0.038159
663.1319	0.016788
666.1330	0.020799
669.1359	0.016455
672.1404	0.026543
675.1466	0.021013
678.1545	0.023799
681.1641	0.029160
684.1754	0.029877
687.1883	0.038615
690.2029	0.028337
693.2192	0.032347
696.2371	0.025466
699.2567	0.030532
702.2779	0.024200
705.3008	0.018650
708.3253	0.032726
711.3514	0.026078
714.3791	0.028231
717.4085	0.021963
720.4395	0.024622
723.4721	0.024686
726.5063	0.025340
729.5421	0.031967
732.5795	0.034035
735.6185	0.041063
738.6591	0.034668
741.7013	0.028463
744.7450	0.024749
747.7903	0.026564
750.8372	0.034056
753.8856	0.036863
756.9356	0.043933
759.9872	0.051299
763.0403	0.042582
766.0949	0.042920
769.1510	0.040535
772.2087	0.033043
775.2679	0.028062
778.3287	0.021921
781.3909	0.030131
784.4547	0.024791
787.5199	0.022364
790.5867	0.019726
793.6550	0.020676
796.7247	0.018249
799.7959	0.016096
802.8686	0.012846
805.9428	0.016729
809.0185	0.019114
812.0956	0.012529
815.1742	0.014091
818.2542	0.012297
821.3357	0.012339
824.4186	0.008308
827.5029	0.011685
830.5887	0.008498
833.6759	0.008836
836.7646	0.006198
839.8546	0.006831
842.9461	0.004341
846.0390	0.004889
849.1333	0.003665
852.2289	0.005987
855.3260	0.010545
858.4245	0.007042
861.5243	0.004720
864.6255	0.004742
867.7281	0.003391
870.8321	0.004214
873.9374	0.004573
877.0441	0.003517
880.1521	0.008013
883.2615	0.003982
886.3722	0.005079
889.4843	0.003180
892.5977	0.003665
895.7124	0.003729
898.8284	0.003074
901.9458	0.004172
905.0644	0.004446
908.1844	0.005248
911.3057	0.004699
914.4283	0.001069
917.5521	0.004720
920.6773	0.002694
923.8037	0.003116
926.9314	0.001344
930.0604	0.002462
933.1906	0.001407
936.3221	0.002969
939.4549	0.000584
942.5889	0.001323
945.7241	0.001850
948.8606	-0.001062
951.9983	0.001301
955.1373	-0.000619
958.2775	0.001365
961.4189	0.000457
964.5615	-0.000577
967.7053	0.000352
970.8504	-0.000218
973.9966	0.000985
977.1440	0.000521
980.2926	-0.000682
983.4424	-0.000197
986.5934	-0.000725
989.7456	0.000183
992.8989	0.001238
996.0534	0.001555
999.2090	-0.001463
1002.37	-0.000007
1005.52	0.000732
1008.68	0.000310
1011.84	-0.000260
1015	-0.000682
1018.17	-0.000809
1021.33	0.000732
1023.03	0.000267