File: Auto_Polymerization/Spectra/MRG-061-F5_spectra_while_stopped_with_alu_foil/spectrum_2025-06-20_09-37-21.txt
# Wavelength (nm)	Intensity (a.u.)
197.7802	0.000768
200.4334	0.000241
203.0892	0.000220
205.7475	0.000557
208.4084	-0.000139
211.0718	0.000220
213.7376	-0.000118
216.4060	0.000852
219.0769	0.001000
221.7503	-0.000054
224.4262	0.000178
227.1046	0.001105
229.7855	0.001063
232.4688	0.000283
235.1546	0.000937
237.8429	0.000262
240.5337	-0.000076
243.2269	-0.000413
245.9225	0.001148
248.6206	-0.000413
251.3212	0.000030
254.0242	0.000473
256.7296	-0.000687
259.4375	0.001021
262.1477	0.000325
264.8604	0.000831
267.5755	0.000494
270.2931	-0.000666
273.0130	0.001021
275.7353	0.000304
278.4600	0.001105
281.1871	0.001696
283.9166	0.000431
286.6484	0.000051
289.3827	-0.000033
292.1193	0.001401
294.8582	0.000578
297.5995	0.000178
300.3432	0.000663
303.0892	0.000578
305.8376	0.000831
308.5883	0.000009
311.3413	0.001253
314.0967	0.000452
316.8543	0.001169
319.6143	-0.000371
322.3766	0.000599
325.1412	-0.000160
327.9082	0.001148
330.6774	0.000852
333.4489	0.001443
336.2227	0.001232
338.9987	0.002287
341.7771	0.000304
344.5577	0.000009
347.3406	-0.000687
350.1257	0.001232
352.9131	-0.000518
355.7027	0.000831
358.4946	-0.000033
361.2888	0.002118
364.0851	0.001042
366.8837	-0.001236
369.6845	0.000178
372.4876	0.001295
375.2928	0.000663
378.1003	0.000325
380.9100	0.000937
383.7219	0.000810
386.5359	0.000494
389.3522	0.002012
392.1706	0.003130
394.9912	0.004185
397.8140	0.005724
400.6390	0.009267
403.4661	0.010364
406.2954	0.011440
409.1269	0.012494
411.9605	0.014076
414.7962	0.013696
417.6341	0.017387
420.4741	0.019602
423.3162	0.021964
426.1605	0.015826
429.0068	0.021015
431.8553	0.020234
434.7059	0.019559
437.5586	0.021415
440.4135	0.021057
443.2703	0.023672
446.1293	0.023588
448.9904	0.019433
451.8535	0.018885
454.7188	0.018062
457.5860	0.016944
460.4554	0.015953
463.3268	0.012579
466.2003	0.012304
469.0758	0.010617
471.9533	0.007475
474.8329	0.007812
477.7145	0.007011
480.5982	0.007390
483.4838	0.005640
486.3715	0.013802
489.2612	0.003193
492.1529	0.004396
495.0466	0.003025
497.9423	0.002076
500.8400	0.003510
503.7397	0.004016
506.6414	0.002055
509.5450	0.002308
512.4506	0.002519
515.3582	0.002519
518.2677	0.002645
521.1792	0.002687
524.0927	0.003320
527.0081	0.002961
529.9254	0.004227
532.8447	0.006251
535.7659	0.007327
538.6890	0.008487
541.6140	0.010448
544.5410	0.011819
547.4699	0.014751
550.4007	0.013338
553.3333	0.019433
556.2679	0.022301
559.2044	0.021500
562.1427	0.028375
565.0829	0.033163
568.0250	0.048601
570.9690	0.094303
573.9149	0.126845
576.8626	0.151689
579.8121	0.171767
582.7635	0.215529
585.7167	0.195789
588.6718	0.165061
591.6288	0.108476
594.5875	0.144730
597.5481	0.123175
600.5105	0.152406
603.4747	0.157531
606.4407	0.140132
609.4085	0.114887
612.3781	0.110036
615.3495	0.106620
618.3227	0.091308
621.2977	0.063322
624.2745	0.072622
627.2530	0.059040
630.2333	0.051005
633.2154	0.039279
636.1992	0.038604
639.1848	0.036305
642.1721	0.025312
645.1612	0.024122
648.1520	0.024076
651.1445	0.023990
654.1388	0.030373
657.1348	0.738367
660.1325	0.041564
663.1319	0.018096
666.1330	0.019814
669.1359	0.016016
672.1404	0.027679
675.1466	0.022301
678.1545	0.025992
681.1641	0.029261
684.1754	0.028776
687.1883	0.037802
690.2029	0.031391
693.2192	0.033648
696.2371	0.025633
699.2567	0.029767
702.2779	0.026604
705.3008	0.021668
708.3253	0.034850
711.3514	0.026245
714.3791	0.028923
717.4085	0.023440
720.4395	0.024389
723.4721	0.022934
726.5063	0.027932
729.5421	0.031855
732.5795	0.034069
735.6185	0.041662
738.6591	0.034871
741.7013	0.028713
744.7450	0.026836
747.7903	0.025950
750.8372	0.033669
753.8856	0.037507
756.9356	0.043455
759.9872	0.052587
763.0403	0.041324
766.0949	0.042252
769.1510	0.040860
772.2087	0.035862
775.2679	0.025317
778.3287	0.022428
781.3909	0.030442
784.4547	0.026709
787.5199	0.025317
790.5867	0.021099
793.6550	0.019538
796.7247	0.018716
799.7959	0.017809
802.8686	0.014245
805.9428	0.016480
809.0185	0.020804
812.0956	0.013992
815.1742	0.014245
818.2542	0.011714
821.3357	0.013127
824.4186	0.010575
827.5029	0.012895
830.5887	0.010280
833.6759	0.007770
836.7646	0.006062
839.8546	0.006188
842.9461	0.002687
846.0390	0.004543
849.1333	0.004986
852.2289	0.004754
855.3260	0.011187
858.4245	0.009352
861.5243	0.005682
864.6255	0.005408
867.7281	0.004480
870.8321	0.005809
873.9374	0.005113
877.0441	0.005345
880.1521	0.007981
883.2615	0.004754
886.3722	0.006336
889.4843	0.004606
892.5977	0.004881
895.7124	0.003088
898.8284	0.004649
901.9458	0.005809
905.0644	0.004374
908.1844	0.004142
911.3057	0.003130
914.4283	0.002350
917.5521	0.005092
920.6773	0.002793
923.8037	0.003889
926.9314	0.001844
930.0604	0.002118
933.1906	0.002350
936.3221	0.001886
939.4549	0.002434
942.5889	0.000810
945.7241	0.002223
948.8606	-0.000244
951.9983	0.001612
955.1373	0.001063
958.2775	0.001021
961.4189	0.000895
964.5615	0.000895
967.7053	0.000093
970.8504	-0.000160
973.9966	0.002055
977.1440	0.001591
980.2926	0.000388
983.4424	0.002097
986.5934	0.000895
989.7456	0.001949
992.8989	-0.000223
996.0534	-0.000750
999.2090	0.000220
1002.37	0.001105
1005.52	0.000810
1008.68	0.000051
1011.84	-0.000708
1015	0.000346
1018.17	-0.000329
1021.33	0.001105
1023.03	0.000578