File: Auto_Polymerization/Spectra/MRG-061-F5_spectra_while_stopped_with_alu_foil/spectrum_2025-06-20_09-22-00.txt
# Wavelength (nm)	Intensity (a.u.)
197.7802	-0.000334
200.4334	-0.000460
203.0892	0.000025
205.7475	0.001627
208.4084	0.001100
211.0718	0.000868
213.7376	0.001901
216.4060	0.001669
219.0769	0.000446
221.7503	0.000193
224.4262	0.001648
227.1046	0.000362
229.7855	0.001627
232.4688	0.000088
235.1546	0.000130
237.8429	-0.000060
240.5337	-0.000503
243.2269	0.002407
245.9225	0.002766
248.6206	-0.000292
251.3212	0.001163
254.0242	0.001226
256.7296	0.001669
259.4375	0.000025
262.1477	0.001058
264.8604	0.001226
267.5755	0.000910
270.2931	0.000025
273.0130	0.001690
275.7353	0.000383
278.4600	0.001543
281.1871	0.000320
283.9166	0.000446
286.6484	-0.000292
289.3827	0.001374
292.1193	0.000067
294.8582	0.001416
297.5995	0.000573
300.3432	0.000573
303.0892	0.000784
305.8376	0.001353
308.5883	0.000720
311.3413	0.001184
314.0967	0.001100
316.8543	0.000910
319.6143	-0.000376
322.3766	0.001711
325.1412	0.001543
327.9082	0.000868
330.6774	0.000973
333.4489	0.001353
336.2227	0.000257
338.9987	0.001986
341.7771	-0.000439
344.5577	0.000446
347.3406	-0.000713
350.1257	0.000742
352.9131	0.000257
355.7027	0.001184
358.4946	0.000320
361.2888	-0.000228
364.0851	-0.000334
366.8837	-0.000165
369.6845	0.000847
372.4876	0.000193
375.2928	0.000995
378.1003	0.001733
380.9100	0.000278
383.7219	0.000826
386.5359	0.001458
389.3522	0.002007
392.1706	0.004579
394.9912	0.006456
397.8140	0.009703
400.6390	0.011411
403.4661	0.014827
406.2954	0.016766
409.1269	0.015986
411.9605	0.020035
414.7962	0.020161
417.6341	0.020836
420.4741	0.023725
423.3162	0.026318
426.1605	0.023429
429.0068	0.023071
431.8553	0.024210
434.7059	0.023240
437.5586	0.023429
440.4135	0.022818
443.2703	0.026381
446.1293	0.024652
448.9904	0.021848
451.8535	0.018306
454.7188	0.017462
457.5860	0.016661
460.4554	0.014974
463.3268	0.014004
466.2003	0.012085
469.0758	0.011390
471.9533	0.008121
474.8329	0.008185
477.7145	0.005760
480.5982	0.007130
483.4838	0.004200
486.3715	0.014890
489.2612	0.004600
492.1529	0.004453
495.0466	0.003145
497.9423	0.003166
500.8400	0.003672
503.7397	0.002850
506.6414	0.002049
509.5450	0.002070
512.4506	0.002112
515.3582	0.003462
518.2677	0.003462
521.1792	0.002091
524.0927	0.005950
527.0081	0.005191
529.9254	0.005001
532.8447	0.003736
535.7659	0.007615
538.6890	0.008353
541.6140	0.009597
544.5410	0.014025
547.4699	0.014616
550.4007	0.015944
553.3333	0.018432
556.2679	0.021869
559.2044	0.022312
562.1427	0.029080
565.0829	0.035891
568.0250	0.046455
570.9690	0.094846
573.9149	0.130079
576.8626	0.155087
579.8121	0.171807
582.7635	0.219756
585.7167	0.200779
588.6718	0.169340
591.6288	0.113696
594.5875	0.147918
597.5481	0.126115
600.5105	0.156774
603.4747	0.157575
606.4407	0.138492
609.4085	0.112178
612.3781	0.110449
615.3495	0.105958
618.3227	0.091514
621.2977	0.064778
624.2745	0.074815
627.2530	0.059064
630.2333	0.051895
633.2154	0.038126
636.1992	0.035617
639.1848	0.034225
642.1721	0.026088
645.1612	0.023954
648.1520	0.026104
651.1445	0.026533
654.1388	0.026995
657.1348	0.730077
660.1325	0.038474
663.1319	0.017204
666.1330	0.021839
669.1359	0.018748
672.1404	0.029165
675.1466	0.024041
678.1545	0.024589
681.1641	0.029882
684.1754	0.031842
687.1883	0.036798
690.2029	0.028553
693.2192	0.033614
696.2371	0.025622
699.2567	0.031189
702.2779	0.025643
705.3008	0.021806
708.3253	0.035195
711.3514	0.028153
714.3791	0.031315
717.4085	0.023282
720.4395	0.023134
723.4721	0.025137
726.5063	0.029671
729.5421	0.031315
732.5795	0.032159
735.6185	0.040382
738.6591	0.033888
741.7013	0.029734
744.7450	0.025011
747.7903	0.027162
750.8372	0.032939
753.8856	0.035448
756.9356	0.042976
759.9872	0.050819
763.0403	0.041415
766.0949	0.042111
769.1510	0.041036
772.2087	0.035427
775.2679	0.025327
778.3287	0.022502
781.3909	0.027984
784.4547	0.026634
787.5199	0.025770
790.5867	0.021595
793.6550	0.020815
796.7247	0.018896
799.7959	0.017821
802.8686	0.014363
805.9428	0.017652
809.0185	0.017989
812.0956	0.013393
815.1742	0.014194
818.2542	0.013245
821.3357	0.011685
824.4186	0.008564
827.5029	0.013182
830.5887	0.008480
833.6759	0.009007
836.7646	0.006498
839.8546	0.007088
842.9461	0.006645
846.0390	0.005233
849.1333	0.004326
852.2289	0.005760
855.3260	0.011685
858.4245	0.009091
861.5243	0.006772
864.6255	0.006118
867.7281	0.006076
870.8321	0.004706
873.9374	0.003567
877.0441	0.004495
880.1521	0.007236
883.2615	0.006203
886.3722	0.006224
889.4843	0.005169
892.5977	0.005781
895.7124	0.003525
898.8284	0.004284
901.9458	0.005064
905.0644	0.005422
908.1844	0.004073
911.3057	0.003693
914.4283	0.003208
917.5521	0.004474
920.6773	0.001690
923.8037	0.003208
926.9314	0.001501
930.0604	0.002091
933.1906	0.003546
936.3221	0.002028
939.4549	0.002681
942.5889	0.001311
945.7241	0.002217
948.8606	0.000151
951.9983	0.002070
955.1373	0.001901
958.2775	0.000973
961.4189	0.001269
964.5615	0.002407
967.7053	0.001374
970.8504	0.001458
973.9966	-0.000039
977.1440	0.001416
980.2926	0.001353
983.4424	0.000467
986.5934	0.000973
989.7456	0.001226
992.8989	0.000847
996.0534	0.000172
999.2090	-0.000481
1002.37	0.001163
1005.52	0.000404
1008.68	0.000889
1011.84	0.001416
1015	0.001248
1018.17	0.000615
1021.33	0.000404
1023.03	0.000995