File: Auto_Polymerization/Data/UV_VIS_Spectra/MRG-061-F5_spectra_while_stopped_with_alu_foil/spectrum_2025-06-20_09-22-00_absorbance.txt
# Wavelength	Absorbance
197.78 2.878522
200.433 3.008600
203.089 1.636688
205.748 -0.529242
208.408 -0.070581
211.072 0.165967
213.738 -0.293556
216.406 -0.320453
219.077 0.341004
221.75 0.897997
224.426 -0.497626
227.105 -0.264242
229.786 -0.419697
232.469 0.014559
235.155 1.292256
237.843 1.851258
240.534 0.000000
243.227 -0.671359
245.923 -0.415728
248.621 2.727541
251.321 -0.329183
254.024 -0.215752
256.73 -0.196741
259.438 1.577951
262.148 -0.034591
264.86 -0.425733
267.575 -0.159701
270.293 -1.397940
273.013 -0.428546
275.735 -2.583199
278.46 -0.252859
281.187 -2.505150
283.917 0.216952
286.648 2.940516
289.383 -0.063170
292.119 1.233110
294.858 -0.076247
297.599 -0.488642
300.343 0.512291
303.089 -0.536381
305.838 0.069826
308.588 0.384960
311.341 0.223094
314.097 -0.441510
316.854 0.134730
319.614 3.245019
322.377 0.227197
325.141 0.195808
327.908 0.569875
330.677 0.647371
333.449 0.523937
336.223 1.256304
338.999 0.441751
341.777 3.818094
344.558 1.237494
347.341 3.899164
350.126 1.040167
352.913 1.486924
355.703 0.918096
358.495 1.454845
361.289 4.042142
364.085 4.019947
366.884 4.063634
369.685 1.209091
372.488 1.894626
375.293 1.184506
378.1 1.014467
380.91 1.897093
383.722 1.433462
386.536 1.208215
389.352 1.097835
392.171 0.784257
394.991 0.659048
397.814 0.536164
400.639 0.480986
403.466 0.351456
406.295 0.331040
409.127 0.334708
411.961 0.231995
414.796 0.241426
417.634 0.222665
420.474 0.229732
423.316 0.211384
426.161 0.203826
429.007 0.241192
431.855 0.219236
434.706 0.249598
437.559 0.264129
440.413 0.298807
443.27 0.290963
446.129 0.332227
448.99 0.376992
451.853 0.429275
454.719 0.408184
457.586 0.469425
460.455 0.538237
463.327 0.540563
466.2 0.661193
469.076 0.590761
471.953 0.697491
474.833 0.749390
477.714 0.889136
480.598 0.881326
483.484 1.106765
486.372 1.048626
489.261 1.064075
492.153 1.049509
495.047 1.210341
497.942 1.194147
500.84 1.136639
503.74 1.291813
506.641 1.416584
509.545 1.371318
512.451 1.317513
515.358 1.087034
518.268 1.077516
521.179 1.263615
524.093 0.809939
527.008 0.863686
529.925 0.908151
532.845 1.023915
535.766 0.760428
538.689 0.719106
541.614 0.680764
544.541 0.566058
547.47 0.535252
550.401 0.460302
553.333 0.450656
556.268 0.401457
559.204 0.313359
562.143 0.289253
565.083 0.235145
568.025 0.236795
570.969 0.210380
573.915 0.194758
576.863 0.167942
579.812 0.160516
582.764 0.136291
585.717 0.125190
588.672 0.111314
591.629 0.109404
594.587 0.094813
597.548 0.116801
600.51 0.094663
603.475 0.102919
606.441 0.080094
609.409 0.092353
612.378 0.088745
615.35 0.106093
618.323 0.082833
621.298 0.072994
624.274 0.074043
627.253 0.082965
630.233 0.080247
633.215 0.083562
636.199 0.092624
639.185 0.074236
642.172 0.091793
645.161 0.060475
648.152 0.059196
651.144 0.048004
654.139 0.112301
657.135 0.095232
660.133 0.155543
663.132 0.120301
666.133 0.047819
669.136 0.079517
672.14 0.064068
675.147 0.052401
678.154 0.073734
681.164 0.062120
684.175 0.034126
687.188 0.086287
690.203 0.088069
693.219 0.074540
696.237 0.069939
699.257 0.064143
702.278 0.074433
705.301 0.050182
708.325 0.041533
711.351 0.030252
714.379 0.035202
717.409 0.082088
720.439 0.093101
723.472 0.046845
726.506 0.060384
729.542 0.071297
732.58 0.132074
735.619 0.083636
738.659 0.082123
741.701 0.053228
744.745 0.074128
747.79 0.069870
750.837 0.074177
753.886 0.090731
756.936 0.079289
759.987 0.081718
763.04 0.073782
766.095 0.076516
769.151 0.077217
772.209 0.068274
775.268 0.061368
778.329 0.055934
781.391 0.118891
784.455 0.066597
787.52 0.057750
790.587 0.086493
793.655 0.065869
796.725 0.096008
799.796 0.093951
802.869 0.045352
805.943 0.046723
809.019 0.135239
812.096 0.080595
815.174 0.069883
818.254 0.059677
821.336 0.178155
824.419 0.113584
827.503 0.049811
830.589 0.089764
833.676 0.101448
836.765 0.130863
839.855 0.050389
842.946 -0.107662
846.039 0.083749
849.133 0.106953
852.229 0.002781
855.326 0.100604
858.424 0.026276
861.524 0.075887
864.625 0.063669
867.728 -0.075027
870.832 0.134138
873.937 0.194798
877.044 0.033817
880.152 0.094454
883.261 -0.011565
886.372 0.035684
889.484 -0.059134
892.598 0.022043
895.712 0.170262
898.828 0.128950
901.946 -0.033321
905.064 -0.005481
908.184 -0.045604
911.306 0.095945
914.428 0.003640
917.552 0.018621
920.677 0.286129
923.804 0.110976
926.931 0.164063
930.06 0.015906
933.191 -0.155988
936.322 -0.154780
939.455 0.019171
942.589 0.135250
945.724 0.127137
948.861 1.086313
951.998 -0.070951
955.137 -0.438876
958.278 -0.161390
961.419 -0.450249
964.562 -0.128623
967.705 0.014302
970.85 -0.453640
973.997 2.994757
977.144 0.041504
980.293 -0.122698
983.442 -0.058657
986.593 -0.167911
989.746 -0.964639
992.899 -0.061596
996.053 0.630759
999.209 0.000000
1002.37 -0.465697
1005.52 0.577173
1008.68 -0.256937
1011.84 -0.278907
1015 -3.096215
1018.17 0.442849
1021.33 -2.606381
1023.03 -0.184910