File: Auto_Polymerization/Data/UV_VIS_Spectra/MRG-061-F5_spectra_while_stopped_with_alu_foil/spectrum_2025-06-20_09-32-14.txt
# Wavelength (nm)	Intensity (a.u.)
197.7802	0.000731
200.4334	-0.001146
203.0892	-0.000661
205.7475	-0.000049
208.4084	-0.001231
211.0718	0.000436
213.7376	0.000731
216.4060	-0.000830
219.0769	-0.000366
221.7503	-0.001379
224.4262	0.000098
227.1046	-0.000113
229.7855	-0.000408
232.4688	0.000035
235.1546	0.002082
237.8429	-0.000345
240.5337	0.000288
243.2269	0.000035
245.9225	-0.000113
248.6206	0.000774
251.3212	0.000415
254.0242	-0.000598
256.7296	-0.001041
259.4375	-0.000049
262.1477	-0.000809
264.8604	-0.000197
267.5755	0.000710
270.2931	0.000098
273.0130	0.001407
275.7353	0.000141
278.4600	-0.000809
281.1871	0.001006
283.9166	0.000309
286.6484	-0.001463
289.3827	-0.000513
292.1193	-0.001125
294.8582	0.000520
297.5995	-0.001716
300.3432	-0.000028
303.0892	-0.000450
305.8376	-0.000366
308.5883	0.000436
311.3413	0.000077
314.0967	-0.000239
316.8543	0.001090
319.6143	-0.000513
322.3766	-0.000914
325.1412	-0.001969
327.9082	0.002019
330.6774	-0.000619
333.4489	0.000858
336.2227	-0.000155
338.9987	-0.000746
341.7771	-0.000535
344.5577	0.000943
347.3406	0.000183
350.1257	0.000710
352.9131	-0.000577
355.7027	-0.000746
358.4946	-0.000788
361.2888	0.000246
364.0851	0.000668
366.8837	0.000900
369.6845	-0.000957
372.4876	0.000436
375.2928	-0.000535
378.1003	-0.000324
380.9100	-0.000492
383.7219	0.000331
386.5359	-0.000049
389.3522	0.000563
392.1706	0.001660
394.9912	0.004445
397.8140	0.006703
400.6390	0.008117
403.4661	0.010691
406.2954	0.014152
409.1269	0.013603
411.9605	0.014996
414.7962	0.016494
417.6341	0.017106
420.4741	0.017865
423.3162	0.023246
426.1605	0.021052
429.0068	0.020102
431.8553	0.019849
434.7059	0.021178
437.5586	0.020672
440.4135	0.020397
443.2703	0.023330
446.1293	0.023225
448.9904	0.019722
451.8535	0.018287
454.7188	0.016895
457.5860	0.015291
460.4554	0.016620
463.3268	0.010754
466.2003	0.013540
469.0758	0.010860
471.9533	0.007547
474.8329	0.007631
477.7145	0.006175
480.5982	0.006260
483.4838	0.005331
486.3715	0.018055
489.2612	0.004720
492.1529	0.003664
495.0466	0.000837
497.9423	0.000710
500.8400	0.002905
503.7397	0.002673
506.6414	0.003770
509.5450	0.001407
512.4506	0.001343
515.3582	0.001533
518.2677	0.002609
521.1792	0.003411
524.0927	0.000816
527.0081	0.004150
529.9254	0.003517
532.8447	0.004551
535.7659	0.006471
538.6890	0.007294
541.6140	0.009151
544.5410	0.010818
547.4699	0.012907
550.4007	0.013371
553.3333	0.017802
556.2679	0.021241
559.2044	0.020651
562.1427	0.029661
565.0829	0.031095
568.0250	0.045381
570.9690	0.089671
573.9149	0.125838
576.8626	0.145103
579.8121	0.166752
582.7635	0.241132
585.7167	0.198129
588.6718	0.168039
591.6288	0.104948
594.5875	0.142676
597.5481	0.122905
600.5105	0.158523
603.4747	0.154619
606.4407	0.146432
609.4085	0.116385
612.3781	0.112418
615.3495	0.105687
618.3227	0.091233
621.2977	0.065574
624.2745	0.069984
627.2530	0.057957
630.2333	0.053293
633.2154	0.036561
636.1992	0.035632
639.1848	0.035759
642.1721	0.026096
645.1612	0.021337
648.1520	0.024137
651.1445	0.024114
654.1388	0.027836
657.1348	0.903828
660.1325	0.061752
663.1319	0.019205
666.1330	0.018549
669.1359	0.018055
672.1404	0.026052
675.1466	0.022402
678.1545	0.024407
681.1641	0.028268
684.1754	0.027572
687.1883	0.036139
690.2029	0.026327
693.2192	0.033248
696.2371	0.026263
699.2567	0.030462
702.2779	0.024364
705.3008	0.022993
708.3253	0.031792
711.3514	0.027508
714.3791	0.028774
717.4085	0.021938
720.4395	0.023204
723.4721	0.023626
726.5063	0.027740
729.5421	0.031475
732.5795	0.036096
735.6185	0.041772
738.6591	0.033923
741.7013	0.030167
744.7450	0.026960
747.7903	0.027276
750.8372	0.032425
753.8856	0.032319
756.9356	0.041266
759.9872	0.050740
763.0403	0.042342
766.0949	0.043840
769.1510	0.041646
772.2087	0.037341
775.2679	0.024744
778.3287	0.022613
781.3909	0.029133
784.4547	0.029133
787.5199	0.024006
790.5867	0.020841
793.6550	0.018477
796.7247	0.019553
799.7959	0.017274
802.8686	0.016093
805.9428	0.015312
809.0185	0.019490
812.0956	0.014679
815.1742	0.013308
818.2542	0.011999
821.3357	0.013476
824.4186	0.008581
827.5029	0.009931
830.5887	0.009488
833.6759	0.005943
836.7646	0.006028
839.8546	0.007294
842.9461	0.004023
846.0390	0.004065
849.1333	0.004487
852.2289	0.004635
855.3260	0.011324
858.4245	0.009931
861.5243	0.006724
864.6255	0.003749
867.7281	0.004340
870.8321	0.003770
873.9374	0.004171
877.0441	0.006386
880.1521	0.006513
883.2615	0.004361
886.3722	0.006935
889.4843	0.003411
892.5977	0.004403
895.7124	0.004255
898.8284	0.002989
901.9458	0.003074
905.0644	0.003833
908.1844	0.005353
911.3057	0.003179
914.4283	0.003200
917.5521	0.003538
920.6773	0.004129
923.8037	0.002968
926.9314	0.002103
930.0604	0.001871
933.1906	0.000985
936.3221	0.001386
939.4549	0.000225
942.5889	0.000225
945.7241	-0.000450
948.8606	0.001702
951.9983	0.000077
955.1373	0.000373
958.2775	0.000098
961.4189	0.001048
964.5615	0.000964
967.7053	0.000858
970.8504	-0.000345
973.9966	0.000436
977.1440	0.000077
980.2926	0.000394
983.4424	-0.000134
986.5934	0.001027
989.7456	-0.000935
992.8989	-0.000176
996.0534	-0.000492
999.2090	0.000373
1002.37	0.000774
1005.52	-0.000577
1008.68	-0.000049
1011.84	0.000225
1015	-0.000535
1018.17	0.000098
1021.33	0.000162
1023.03	0.000246