File: Auto_Polymerization/Data/UV_VIS_Spectra/MRG-061-F5_spectra_while_stopped_with_alu_foil/spectrum_2025-06-20_09-57-49.txt
# Wavelength (nm)	Intensity (a.u.)
197.7802	-0.001354
200.4334	-0.001396
203.0892	-0.001755
205.7475	-0.001185
208.4084	-0.000004
211.0718	-0.000615
213.7376	-0.000215
216.4060	-0.000826
219.0769	-0.000257
221.7503	0.000102
224.4262	-0.000573
227.1046	0.000355
229.7855	0.000313
232.4688	0.000862
235.1546	0.000714
237.8429	0.000334
240.5337	0.000735
243.2269	-0.000721
245.9225	-0.000067
248.6206	0.002064
251.3212	-0.000067
254.0242	-0.000046
256.7296	0.000756
259.4375	0.000018
262.1477	0.001199
264.8604	-0.000890
267.5755	-0.000468
270.2931	-0.000805
273.0130	0.000292
275.7353	-0.000383
278.4600	0.001030
281.1871	0.000883
283.9166	0.000440
286.6484	-0.000320
289.3827	0.000461
292.1193	-0.000658
294.8582	0.000756
297.5995	0.000207
300.3432	-0.000004
303.0892	0.001178
305.8376	-0.000215
308.5883	0.000207
311.3413	0.002064
314.0967	-0.000404
316.8543	0.000123
319.6143	0.000229
322.3766	0.000862
325.1412	0.000271
327.9082	-0.000151
330.6774	0.000102
333.4489	0.000756
336.2227	-0.000742
338.9987	-0.000383
341.7771	0.001009
344.5577	0.000524
347.3406	0.000292
350.1257	-0.000172
352.9131	0.000967
355.7027	-0.000215
358.4946	-0.001860
361.2888	0.000629
364.0851	0.001558
366.8837	0.001262
369.6845	-0.001080
372.4876	0.001347
375.2928	0.001241
378.1003	-0.000004
380.9100	0.001769
383.7219	-0.000088
386.5359	-0.000383
389.3522	0.001283
392.1706	-0.000404
394.9912	0.002317
397.8140	0.002317
400.6390	0.004723
403.4661	0.005820
406.2954	0.008014
409.1269	0.010039
411.9605	0.009997
414.7962	0.010904
417.6341	0.011179
420.4741	0.015989
423.3162	0.014428
426.1605	0.013921
429.0068	0.015377
431.8553	0.017635
434.7059	0.018437
437.5586	0.017614
440.4135	0.020124
443.2703	0.019175
446.1293	0.020082
448.9904	0.018626
451.8535	0.013943
454.7188	0.013753
457.5860	0.012803
460.4554	0.014934
463.3268	0.013267
466.2003	0.012065
469.0758	0.007993
471.9533	0.006453
474.8329	0.006389
477.7145	0.005060
480.5982	0.006832
483.4838	0.004701
486.3715	0.012930
489.2612	0.003710
492.1529	0.003562
495.0466	0.002570
497.9423	0.001705
500.8400	0.002191
503.7397	0.003900
506.6414	0.002739
509.5450	0.002971
512.4506	0.001178
515.3582	0.002360
518.2677	0.001642
521.1792	0.003288
524.0927	0.003583
527.0081	0.003668
529.9254	0.004448
532.8447	0.004617
535.7659	0.006938
538.6890	0.006832
541.6140	0.008035
544.5410	0.010989
547.4699	0.014407
550.4007	0.012972
553.3333	0.016728
556.2679	0.020821
559.2044	0.019956
562.1427	0.026960
565.0829	0.032172
568.0250	0.044261
570.9690	0.087154
573.9149	0.125490
576.8626	0.141061
579.8121	0.163615
582.7635	0.203069
585.7167	0.187520
588.6718	0.157602
591.6288	0.104075
594.5875	0.136356
597.5481	0.118359
600.5105	0.147369
603.4747	0.154036
606.4407	0.131883
609.4085	0.107978
612.3781	0.105531
615.3495	0.104877
618.3227	0.085255
621.2977	0.060296
624.2745	0.069875
627.2530	0.055781
630.2333	0.049093
633.2154	0.036602
636.1992	0.034387
639.1848	0.034598
642.1721	0.025863
645.1612	0.024163
648.1520	0.026025
651.1445	0.023753
654.1388	0.028582
657.1348	0.706006
660.1325	0.040337
663.1319	0.017754
666.1330	0.020061
669.1359	0.016685
672.1404	0.027319
675.1466	0.020757
678.1545	0.024618
681.1641	0.025526
684.1754	0.027889
687.1883	0.035590
690.2029	0.027213
693.2192	0.031243
696.2371	0.023711
699.2567	0.029133
702.2779	0.025800
705.3008	0.019513
708.3253	0.030716
711.3514	0.027003
714.3791	0.028374
717.4085	0.021137
720.4395	0.023458
723.4721	0.024639
726.5063	0.026538
729.5421	0.030990
732.5795	0.034028
735.6185	0.039155
738.6591	0.033248
741.7013	0.029956
744.7450	0.024344
747.7903	0.027783
750.8372	0.033923
753.8856	0.033037
756.9356	0.042088
759.9872	0.049831
763.0403	0.039008
766.0949	0.042341
769.1510	0.039366
772.2087	0.033817
775.2679	0.024724
778.3287	0.019998
781.3909	0.029028
784.4547	0.026918
787.5199	0.025272
790.5867	0.021158
793.6550	0.020525
796.7247	0.020694
799.7959	0.018479
802.8686	0.014533
805.9428	0.017023
809.0185	0.019787
812.0956	0.011896
815.1742	0.013035
818.2542	0.012276
821.3357	0.013668
824.4186	0.006621
827.5029	0.011791
830.5887	0.008330
833.6759	0.006389
836.7646	0.005693
839.8546	0.005651
842.9461	0.004132
846.0390	0.005081
849.1333	0.003604
852.2289	0.005102
855.3260	0.009385
858.4245	0.007993
861.5243	0.005693
864.6255	0.004005
867.7281	0.004216
870.8321	0.003794
873.9374	0.004976
877.0441	0.004301
880.1521	0.007339
883.2615	0.004976
886.3722	0.004723
889.4843	0.004385
892.5977	0.005166
895.7124	0.004195
898.8284	0.003267
901.9458	0.004364
905.0644	0.002191
908.1844	0.004111
911.3057	0.002950
914.4283	0.002043
917.5521	0.004005
920.6773	0.003499
923.8037	0.003309
926.9314	0.002718
930.0604	0.000862
933.1906	0.002402
936.3221	0.001157
939.4549	0.001115
942.5889	0.001579
945.7241	0.001705
948.8606	0.001136
951.9983	-0.000932
955.1373	0.001094
958.2775	0.000840
961.4189	-0.000425
964.5615	0.000883
967.7053	-0.001565
970.8504	-0.000257
973.9966	0.001157
977.1440	-0.000046
980.2926	0.000545
983.4424	-0.000088
986.5934	-0.000046
989.7456	-0.000489
992.8989	0.000461
996.0534	0.002381
999.2090	0.001051
1002.37	0.000714
1005.52	-0.000383
1008.68	-0.000995
1011.84	0.001579
1015	-0.000278
1018.17	0.000039
1021.33	0.000207
1023.03	0.000081