File: Auto_Polymerization/Data/UV_VIS_Spectra/MRG-061-F5_spectra_while_stopped_with_alu_foil/spectrum_2025-06-20_09-27-07.txt
# Wavelength (nm)	Intensity (a.u.)
197.7802	0.000311
200.4334	0.001281
203.0892	0.000100
205.7475	-0.000111
208.4084	0.000543
211.0718	0.000944
213.7376	0.000353
216.4060	0.000480
219.0769	0.000459
221.7503	0.000185
224.4262	0.000691
227.1046	0.000754
229.7855	0.000037
232.4688	0.000248
235.1546	0.001112
237.8429	0.001197
240.5337	0.001703
243.2269	0.000459
245.9225	0.001323
248.6206	0.000775
251.3212	0.000691
254.0242	-0.000026
256.7296	-0.000490
259.4375	0.001829
262.1477	0.001028
264.8604	0.000501
267.5755	0.000395
270.2931	0.001661
273.0130	0.001598
275.7353	0.001260
278.4600	0.000311
281.1871	-0.001165
283.9166	0.001155
286.6484	-0.000891
289.3827	0.000227
292.1193	-0.000026
294.8582	0.000817
297.5995	0.000206
300.3432	0.000965
303.0892	0.001218
305.8376	-0.000279
308.5883	0.000606
311.3413	0.001091
314.0967	0.000185
316.8543	0.001197
319.6143	-0.000385
322.3766	0.000353
325.1412	-0.000195
327.9082	0.001471
330.6774	-0.000216
333.4489	0.001007
336.2227	-0.000343
338.9987	0.001281
341.7771	0.000353
344.5577	-0.000364
347.3406	0.000501
350.1257	0.000859
352.9131	0.001028
355.7027	0.002104
358.4946	0.000648
361.2888	-0.000511
364.0851	0.000543
366.8837	0.001112
369.6845	0.000775
372.4876	0.002104
375.2928	0.000585
378.1003	0.000859
380.9100	0.002209
383.7219	0.001218
386.5359	0.000691
389.3522	0.001998
392.1706	0.003348
394.9912	0.006785
397.8140	0.008177
400.6390	0.010856
403.4661	0.011994
406.2954	0.016423
409.1269	0.016718
411.9605	0.018005
414.7962	0.019460
417.6341	0.019270
420.4741	0.021379
423.3162	0.024353
426.1605	0.021717
429.0068	0.021358
431.8553	0.022033
434.7059	0.023804
437.5586	0.022919
440.4135	0.021316
443.2703	0.026947
446.1293	0.024015
448.9904	0.022370
451.8535	0.021105
454.7188	0.017351
457.5860	0.015643
460.4554	0.014884
463.3268	0.014462
466.2003	0.012965
469.0758	0.010476
471.9533	0.008979
474.8329	0.008852
477.7145	0.007734
480.5982	0.007692
483.4838	0.006195
486.3715	0.017077
489.2612	0.003474
492.1529	0.003517
495.0466	0.003496
497.9423	0.002631
500.8400	0.003517
503.7397	0.001977
506.6414	0.003538
509.5450	0.003411
512.4506	0.001703
515.3582	0.003137
518.2677	0.002336
521.1792	0.002040
524.0927	0.003053
527.0081	0.004107
529.9254	0.004466
532.8447	0.006448
535.7659	0.006722
538.6890	0.008030
541.6140	0.011151
544.5410	0.011088
547.4699	0.014546
550.4007	0.015179
553.3333	0.022370
556.2679	0.022286
559.2044	0.023572
562.1427	0.029962
565.0829	0.032683
568.0250	0.046581
570.9690	0.094326
573.9149	0.131190
576.8626	0.150845
579.8121	0.172631
582.7635	0.220440
585.7167	0.201523
588.6718	0.167190
591.6288	0.112906
594.5875	0.145868
597.5481	0.126509
600.5105	0.154852
603.4747	0.161875
606.4407	0.138825
609.4085	0.117040
612.3781	0.112189
615.3495	0.107570
618.3227	0.092745
621.2977	0.061680
624.2745	0.073912
627.2530	0.061111
630.2333	0.054384
633.2154	0.037217
636.1992	0.039136
639.1848	0.034560
642.1721	0.024765
645.1612	0.022067
648.1520	0.025683
651.1445	0.024784
654.1388	0.029655
657.1348	0.740573
660.1325	0.041293
663.1319	0.017955
666.1330	0.020428
669.1359	0.017899
672.1404	0.027200
675.1466	0.024184
678.1545	0.022539
681.1641	0.029941
684.1754	0.026567
687.1883	0.037744
690.2029	0.029182
693.2192	0.035087
696.2371	0.025934
699.2567	0.030764
702.2779	0.025766
705.3008	0.019861
708.3253	0.033210
711.3514	0.026820
714.3791	0.028908
717.4085	0.024564
720.4395	0.023931
723.4721	0.024796
726.5063	0.028528
729.5421	0.032198
732.5795	0.034644
735.6185	0.041941
738.6591	0.036479
741.7013	0.027347
744.7450	0.027495
747.7903	0.026504
750.8372	0.034644
753.8856	0.038208
756.9356	0.042447
759.9872	0.053287
763.0403	0.040992
766.0949	0.042236
769.1510	0.040338
772.2087	0.033990
775.2679	0.028339
778.3287	0.023172
781.3909	0.031143
784.4547	0.027390
787.5199	0.024732
790.5867	0.022244
793.6550	0.020430
796.7247	0.018638
799.7959	0.020093
802.8686	0.014588
805.9428	0.015179
809.0185	0.020304
812.0956	0.014736
815.1742	0.015010
818.2542	0.012437
821.3357	0.012901
824.4186	0.008747
827.5029	0.011594
830.5887	0.008473
833.6759	0.009717
836.7646	0.006828
839.8546	0.008135
842.9461	0.005394
846.0390	0.005056
849.1333	0.005394
852.2289	0.006448
855.3260	0.013618
858.4245	0.009422
861.5243	0.004423
864.6255	0.005499
867.7281	0.005731
870.8321	0.004972
873.9374	0.005520
877.0441	0.005162
880.1521	0.007292
883.2615	0.005499
886.3722	0.005710
889.4843	0.004529
892.5977	0.005879
895.7124	0.003601
898.8284	0.005499
901.9458	0.005309
905.0644	0.003411
908.1844	0.003432
911.3057	0.004234
914.4283	0.003137
917.5521	0.004318
920.6773	0.003053
923.8037	0.001281
926.9314	0.001619
930.0604	0.003264
933.1906	0.001218
936.3221	0.002209
939.4549	0.001176
942.5889	0.000142
945.7241	0.001619
948.8606	0.000859
951.9983	0.000944
955.1373	0.002040
958.2775	0.002315
961.4189	0.000269
964.5615	0.001745
967.7053	0.001049
970.8504	0.002019
973.9966	0.000564
977.1440	0.000543
980.2926	0.001450
983.4424	0.000986
986.5934	0.000121
989.7456	0.000564
992.8989	0.001534
996.0534	0.000016
999.2090	0.001703
1002.37	-0.000385
1005.52	0.002336
1008.68	-0.000090
1011.84	0.001070
1015	0.000606
1018.17	0.000775
1021.33	0.000606
1023.03	0.000417