File: Auto_Polymerization/Data/UV_VIS_Spectra/MRG-061-F5_spectra_while_stopped_with_alu_foil/spectrum_2025-06-20_09-42-28_absorbance.txt
# Wavelength	Absorbance
197.78 2.878522
200.433 3.008600
203.089 3.034628
205.748 2.682145
208.408 2.970812
211.072 0.486439
213.738 2.985426
216.406 0.185165
219.077 0.841120
221.75 3.183555
224.426 0.456880
227.105 -0.570045
229.786 0.300329
232.469 -1.110996
235.155 0.494509
237.843 -0.575253
240.534 -3.154728
243.227 -0.431646
245.923 0.244369
248.621 2.727541
251.321 2.736397
254.024 2.872739
256.73 0.876496
259.438 2.975891
262.148 1.445827
264.86 2.662758
267.575 2.799341
270.293 -2.491362
273.013 2.799341
275.735 0.000000
278.46 -0.157213
281.187 -3.028978
283.917 2.866287
286.648 0.791297
289.383 0.045839
292.119 3.059185
294.858 3.074816
297.599 2.269513
300.343 0.473872
303.089 2.357935
305.838 3.201124
308.588 3.242293
311.341 0.174886
314.097 2.599883
316.854 0.884257
319.614 3.245019
322.377 0.537721
325.141 0.892812
327.908 0.608028
330.677 3.635484
333.449 0.830458
336.223 1.146409
338.999 3.739731
341.777 1.084095
344.558 0.866468
347.341 0.662626
350.126 1.250655
352.913 3.896857
355.703 1.209692
358.495 3.959995
361.289 1.615631
364.085 1.629012
366.884 4.063634
369.685 4.136974
372.488 1.753672
375.293 4.182329
378.1 4.253265
380.91 4.341138
383.722 4.350442
386.536 2.380746
389.352 1.488692
392.171 1.096723
394.991 1.066578
397.814 0.713443
400.639 0.717452
403.466 0.614185
406.295 0.560229
409.127 0.456165
411.961 0.456090
414.796 0.391818
417.634 0.380981
420.474 0.391447
423.316 0.359006
426.161 0.320460
429.007 0.296848
431.855 0.319975
434.706 0.401786
437.559 0.355426
440.413 0.446392
443.27 0.325042
446.129 0.358049
448.99 0.407648
451.853 0.441326
454.719 0.491042
457.586 0.504819
460.455 0.569218
463.327 0.603778
466.2 0.671889
469.076 0.726692
471.953 0.809003
474.833 0.784576
477.714 0.880108
480.598 0.939231
483.484 1.026036
486.372 1.092541
489.261 1.207530
492.153 1.288566
495.047 1.264073
497.942 1.710581
500.84 1.306565
503.74 1.286662
506.641 1.536396
509.545 1.573011
512.451 1.208437
515.358 1.096033
518.268 1.196722
521.179 1.719458
524.093 1.147181
527.008 1.027487
529.925 0.967523
532.845 0.926262
535.766 0.855844
538.689 0.795850
541.614 0.688526
544.541 0.639866
547.47 0.570423
550.401 0.531217
553.333 0.445061
556.268 0.382418
559.204 0.321870
562.143 0.323757
565.083 0.280296
568.025 0.234920
570.969 0.225063
573.915 0.200421
576.863 0.194804
579.812 0.157114
582.764 0.140860
585.717 0.137495
588.672 0.130124
591.629 0.121465
594.587 0.108734
597.548 0.116075
600.51 0.106137
603.475 0.102261
606.441 0.092544
609.409 0.097334
612.378 0.105558
615.35 0.105479
618.323 0.091174
621.298 0.099341
624.274 0.096192
627.253 0.088738
630.233 0.096125
633.215 0.076130
636.199 0.099878
639.185 0.065754
642.172 0.097642
645.161 0.090129
648.152 0.119591
651.144 0.129585
654.139 0.107628
657.135 0.089876
660.133 0.159113
663.132 0.130931
666.133 0.069009
669.136 0.136174
672.14 0.104980
675.147 0.110866
678.154 0.087916
681.164 0.072742
684.175 0.061789
687.188 0.065355
690.203 0.091367
693.219 0.091226
696.237 0.072591
699.257 0.073389
702.278 0.099586
705.301 0.118079
708.325 0.073121
711.351 0.063503
714.379 0.080229
717.409 0.107416
720.439 0.066029
723.472 0.054707
726.506 0.128910
729.542 0.062348
732.58 0.107451
735.619 0.076373
738.659 0.072240
741.701 0.072201
744.745 0.078701
747.79 0.079538
750.837 0.059694
753.886 0.073732
756.936 0.069724
759.987 0.077635
763.04 0.061714
766.095 0.068252
769.151 0.082552
772.209 0.098529
775.268 0.016833
778.329 0.067295
781.391 0.086787
784.455 0.097740
787.52 0.119315
790.587 0.125808
793.655 0.068779
796.725 0.111139
799.796 0.138165
802.869 0.093829
805.943 0.070047
809.019 0.108894
812.096 0.109556
815.174 0.073046
818.254 0.091930
821.336 0.154504
824.419 0.126764
827.503 0.102163
830.589 0.088843
833.676 0.109772
836.765 0.151391
839.855 0.066429
842.946 0.077243
846.039 0.113280
849.133 0.178965
852.229 -0.014006
855.326 0.145186
858.424 0.137191
861.524 0.232662
864.625 0.174317
867.728 0.178263
870.832 0.182096
873.937 0.086900
877.044 0.140375
880.152 0.050158
883.261 0.180936
886.372 0.123976
889.484 0.151846
892.598 0.219972
895.712 0.145828
898.828 0.273095
901.946 0.050829
905.064 0.080709
908.184 -0.155683
911.306 -0.008682
914.428 0.480897
917.552 -0.004625
920.677 0.083619
923.804 0.123613
926.931 0.212045
930.06 -0.055028
933.191 0.245457
936.322 -0.320322
939.455 0.681055
942.589 0.131293
945.724 0.205731
948.861 3.265290
951.998 0.130742
955.137 2.840106
958.278 -0.308410
961.419 -0.006704
964.562 3.252853
967.705 0.605746
970.85 2.710117
973.997 0.001321
977.144 0.475730
980.293 3.008600
983.442 2.610660
986.593 2.820201
989.746 -0.138599
992.899 -0.226433
996.053 -0.325443
999.209 0.000000
1002.37 2.599883
1005.52 0.319043
1008.68 0.200603
1011.84 2.872156
1015 0.000000
1018.17 3.231724
1021.33 -2.864511
1023.03 0.386402