File: Auto_Polymerization/Data/UV_VIS_Spectra/MRG-061-F5_spectra_while_stopped_with_alu_foil/spectrum_2025-06-20_10-23-24.txt
# Wavelength (nm)	Intensity (a.u.)
197.7802	0.001320
200.4334	0.000223
203.0892	0.000814
205.7475	0.000961
208.4084	0.000434
211.0718	0.000751
213.7376	0.001531
216.4060	0.000645
219.0769	0.000835
221.7503	-0.000916
224.4262	0.001004
227.1046	-0.001148
229.7855	0.001215
232.4688	0.000645
235.1546	0.000413
237.8429	-0.000388
240.5337	0.000202
243.2269	0.001172
245.9225	0.000118
248.6206	0.000054
251.3212	0.000793
254.0242	0.000076
256.7296	0.001362
259.4375	-0.000578
262.1477	-0.000009
264.8604	0.000645
267.5755	0.000202
270.2931	-0.000030
273.0130	0.000476
275.7353	0.000076
278.4600	-0.000705
281.1871	0.001193
283.9166	0.001025
286.6484	0.000708
289.3827	-0.000325
292.1193	-0.000452
294.8582	0.000497
297.5995	0.000202
300.3432	0.000772
303.0892	0.000729
305.8376	0.000160
308.5883	-0.000410
311.3413	0.001172
314.0967	0.000666
316.8543	0.001784
319.6143	0.000287
322.3766	0.000624
325.1412	0.001784
327.9082	0.001130
330.6774	0.001383
333.4489	0.000413
336.2227	0.000244
338.9987	0.001362
341.7771	0.000624
344.5577	0.001489
347.3406	0.000265
350.1257	0.000645
352.9131	-0.000494
355.7027	0.000329
358.4946	0.000624
361.2888	-0.000241
364.0851	0.000202
366.8837	0.000898
369.6845	-0.001063
372.4876	0.001383
375.2928	0.000940
378.1003	-0.000009
380.9100	-0.000747
383.7219	0.000413
386.5359	-0.001148
389.3522	0.000371
392.1706	0.001341
394.9912	0.002396
397.8140	0.002775
400.6390	0.003134
403.4661	0.003893
406.2954	0.005644
409.1269	0.007226
411.9605	0.006635
414.7962	0.011360
417.6341	0.010327
420.4741	0.013765
423.3162	0.015452
426.1605	0.014524
429.0068	0.015305
431.8553	0.016127
434.7059	0.015980
437.5586	0.016401
440.4135	0.018194
443.2703	0.020957
446.1293	0.017794
448.9904	0.018679
451.8535	0.015790
454.7188	0.015452
457.5860	0.013216
460.4554	0.012563
463.3268	0.012183
466.2003	0.012752
469.0758	0.008576
471.9533	0.006678
474.8329	0.005623
477.7145	0.007015
480.5982	0.005096
483.4838	0.004315
486.3715	0.015832
489.2612	0.003767
492.1529	0.003851
495.0466	0.002775
497.9423	0.002185
500.8400	0.003197
503.7397	0.003619
506.6414	0.003071
509.5450	0.003261
512.4506	0.002839
515.3582	0.002143
518.2677	0.002354
521.1792	0.002396
524.0927	0.003661
527.0081	0.003303
529.9254	0.003809
532.8447	0.004168
535.7659	0.006846
538.6890	0.006530
541.6140	0.009441
544.5410	0.011339
547.4699	0.013237
550.4007	0.014883
553.3333	0.019165
556.2679	0.021632
559.2044	0.019122
562.1427	0.026399
565.0829	0.031251
568.0250	0.043906
570.9690	0.087125
573.9149	0.121570
576.8626	0.144013
579.8121	0.160992
582.7635	0.206911
585.7167	0.183520
588.6718	0.156479
591.6288	0.103283
594.5875	0.135048
597.5481	0.119060
600.5105	0.148231
603.4747	0.150805
606.4407	0.130176
609.4085	0.106025
612.3781	0.102439
615.3495	0.103578
618.3227	0.086303
621.2977	0.057638
624.2745	0.069007
627.2530	0.059199
630.2333	0.049665
633.2154	0.034330
636.1992	0.033761
639.1848	0.033086
642.1721	0.026127
645.1612	0.022044
648.1520	0.023950
651.1445	0.022507
654.1388	0.027994
657.1348	0.715028
660.1325	0.037096
663.1319	0.018397
666.1330	0.018267
669.1359	0.016823
672.1404	0.028319
675.1466	0.021042
678.1545	0.023151
681.1641	0.027159
684.1754	0.026863
687.1883	0.036840
690.2029	0.029141
693.2192	0.034668
696.2371	0.025134
699.2567	0.028825
702.2779	0.023467
705.3008	0.020156
708.3253	0.033339
711.3514	0.025598
714.3791	0.029880
717.4085	0.023932
720.4395	0.025408
723.4721	0.022835
726.5063	0.029711
729.5421	0.031082
732.5795	0.033634
735.6185	0.037937
738.6591	0.031947
741.7013	0.028572
744.7450	0.024585
747.7903	0.027475
750.8372	0.032411
753.8856	0.035448
756.9356	0.042493
759.9872	0.050087
763.0403	0.041164
766.0949	0.039287
769.1510	0.040025
772.2087	0.033423
775.2679	0.025914
778.3287	0.021126
781.3909	0.030618
784.4547	0.025535
787.5199	0.025598
790.5867	0.020367
793.6550	0.020240
796.7247	0.019481
799.7959	0.016380
802.8686	0.013976
805.9428	0.018616
809.0185	0.019397
812.0956	0.014482
815.1742	0.014440
818.2542	0.012605
821.3357	0.012267
824.4186	0.008386
827.5029	0.011234
830.5887	0.007901
833.6759	0.007500
836.7646	0.007838
839.8546	0.006572
842.9461	0.005496
846.0390	0.005581
849.1333	0.003809
852.2289	0.003661
855.3260	0.012647
858.4245	0.009019
861.5243	0.004146
864.6255	0.004758
867.7281	0.005918
870.8321	0.004843
873.9374	0.003936
877.0441	0.004400
880.1521	0.007078
883.2615	0.005771
886.3722	0.005813
889.4843	0.002797
892.5977	0.003577
895.7124	0.004400
898.8284	0.003893
901.9458	0.004020
905.0644	0.004125
908.1844	0.002037
911.3057	0.004252
914.4283	0.001847
917.5521	0.003514
920.6773	0.003851
923.8037	0.002522
926.9314	0.003218
930.0604	0.000940
933.1906	0.002333
936.3221	0.002100
939.4549	0.002712
942.5889	0.002923
945.7241	0.001172
948.8606	0.000350
951.9983	0.001615
955.1373	0.001320
958.2775	0.001742
961.4189	0.000751
964.5615	-0.000072
967.7053	0.000793
970.8504	0.001172
973.9966	0.001426
977.1440	0.000793
980.2926	0.000033
983.4424	0.001447
986.5934	0.000455
989.7456	-0.000114
992.8989	-0.000388
996.0534	-0.000388
999.2090	0.000160
1002.37	0.000603
1005.52	-0.000114
1008.68	-0.000747
1011.84	0.000012
1015	0.000645
1018.17	0.001594
1021.33	0.002058
1023.03	0.000519