File: Auto_Polymerization/Data/UV_VIS_Spectra/MRG-061-F5_spectra_while_stopped_with_alu_foil/spectrum_2025-06-20_10-23-24_absorbance.txt
# Wavelength	Absorbance
197.78 -0.242052
200.433 0.660295
203.089 0.124004
205.748 -0.300578
208.408 0.333322
211.072 0.228847
213.738 -0.199549
216.406 0.092443
219.077 0.068652
221.75 3.183555
224.426 -0.282402
227.105 2.294466
229.786 -0.292886
232.469 -0.850518
235.155 0.790249
237.843 1.851258
240.534 -2.305351
243.227 -0.358810
245.923 0.954243
248.621 0.995147
251.321 -0.162877
254.024 0.991925
256.73 -0.108462
259.438 2.975891
262.148 2.989895
264.86 -0.146802
267.575 0.493989
270.293 0.000000
273.013 0.121734
275.735 -1.880814
278.46 2.935507
281.187 -3.076640
283.917 -0.144437
286.648 0.090483
289.383 3.074816
292.119 3.059185
294.858 0.378460
297.599 -0.035838
300.343 0.382829
303.089 -0.504793
305.838 0.997004
308.588 3.242293
311.341 0.227518
314.097 -0.223591
316.854 -0.157623
319.614 0.787137
322.377 0.665262
325.141 0.132779
327.908 0.455317
330.677 0.494662
333.449 1.039284
336.223 1.278847
338.999 0.605553
341.777 1.022909
344.558 0.713934
347.341 1.475918
350.126 1.101011
352.913 3.896857
355.703 1.474252
358.495 1.164810
361.289 4.042142
364.085 1.714595
366.884 1.110357
369.685 4.136974
372.488 1.039361
375.293 1.209201
378.1 4.253265
380.91 4.341138
383.722 1.734492
386.536 4.371972
389.352 1.831009
392.171 1.317599
394.991 1.089525
397.814 1.079807
400.639 1.042211
403.466 0.932225
406.295 0.803882
409.127 0.679550
411.961 0.711944
414.796 0.490559
417.634 0.527505
420.474 0.466162
423.316 0.442652
426.161 0.411493
429.007 0.419425
431.855 0.395677
434.706 0.412258
437.559 0.419012
440.413 0.397156
443.27 0.390925
446.129 0.473806
448.99 0.445050
451.853 0.493486
454.719 0.461294
457.586 0.570026
460.455 0.614481
463.327 0.601061
466.2 0.637861
469.076 0.714000
471.953 0.782455
474.833 0.912440
477.714 0.803531
480.598 1.027186
483.484 1.095034
486.372 1.021985
489.261 1.150838
492.153 1.112588
495.047 1.264699
497.942 1.355206
500.84 1.196799
503.74 1.188069
506.641 1.240847
509.545 1.173937
512.451 1.189042
515.358 1.295339
518.268 1.245037
521.179 1.204482
524.093 1.020856
527.008 1.060028
529.925 1.026397
532.845 0.976394
535.766 0.806661
538.689 0.826035
541.614 0.687881
544.541 0.658386
547.47 0.578291
550.401 0.490209
553.333 0.433720
556.268 0.406189
559.204 0.380365
562.143 0.331260
565.083 0.295266
568.025 0.261304
570.969 0.247257
573.915 0.224139
576.863 0.200116
579.812 0.188753
582.764 0.162448
585.717 0.164224
588.672 0.145617
591.629 0.151120
594.587 0.134346
597.548 0.141802
600.51 0.118998
603.475 0.121991
606.441 0.106988
609.409 0.116853
612.378 0.121442
615.35 0.115960
618.323 0.108294
621.298 0.123713
624.274 0.109138
627.253 0.081973
630.233 0.099322
633.215 0.129109
636.199 0.115866
639.185 0.088935
642.172 0.091144
645.161 0.096563
648.152 0.096598
651.144 0.119473
654.139 0.096519
657.135 0.104278
660.133 0.171383
663.132 0.091183
666.133 0.125384
669.136 0.126569
672.14 0.076852
675.147 0.110267
678.154 0.099905
681.164 0.103616
684.175 0.107972
687.188 0.085791
690.203 0.079216
693.219 0.061131
696.237 0.078290
699.257 0.098375
702.278 0.112944
705.301 0.084354
708.325 0.065061
711.351 0.071571
714.379 0.055574
717.409 0.070129
720.439 0.052381
723.472 0.088557
726.506 0.059799
729.542 0.074541
732.58 0.112598
735.619 0.110761
738.659 0.107739
741.701 0.070541
744.745 0.081589
747.79 0.064894
750.837 0.081195
753.886 0.090731
756.936 0.084198
759.987 0.088019
763.04 0.076422
766.095 0.106662
769.151 0.088051
772.209 0.093563
775.268 0.051417
778.329 0.083338
781.391 0.079824
784.455 0.084898
787.52 0.060658
790.587 0.111919
793.655 0.078035
796.725 0.082767
799.796 0.130569
802.869 0.057214
805.943 0.023631
809.019 0.102511
812.096 0.046644
815.174 0.062421
818.254 0.081186
821.336 0.157046
824.419 0.122706
827.503 0.119258
830.589 0.120477
833.676 0.180966
836.765 0.049438
839.855 0.083216
842.946 -0.025214
846.039 0.055788
849.133 0.162228
852.229 0.199604
855.326 0.066245
858.424 0.029729
861.524 0.288975
864.625 0.172854
867.728 -0.063584
870.832 0.121676
873.937 0.152046
877.044 0.043094
880.152 0.104042
883.261 0.019786
886.372 0.065354
889.484 0.207580
892.598 0.230527
895.712 0.073968
898.828 0.170515
901.946 0.066947
905.064 0.113254
908.184 0.255320
911.306 0.034731
914.428 0.243407
917.552 0.123515
920.677 -0.071557
923.804 0.215465
926.931 -0.167142
930.06 0.363132
933.191 0.025836
936.322 -0.169931
939.455 0.014178
942.589 -0.212976
945.724 0.403975
948.861 0.721222
951.998 0.036846
955.137 -0.280468
958.278 -0.414326
961.419 -0.222427
964.562 3.252853
967.705 0.253015
970.85 -0.358810
973.997 -0.159363
977.144 0.293294
980.293 1.490086
983.442 -0.549808
986.593 0.162190
989.746 2.123852
992.899 2.866287
996.053 2.866287
999.209 -2.204120
1002.37 -0.180434
1005.52 3.183555
1008.68 2.691965
1011.84 1.792975
1015 -2.809560
1018.17 0.029236
1021.33 -3.313445
1023.03 0.097746