File: Auto_Polymerization/Data/UV_VIS_Spectra/MRG-061-F5_spectra_while_stopped_with_alu_foil/spectrum_2025-06-20_09-06-40.txt
# Wavelength (nm)	Intensity (a.u.)
197.7802	0.000809
200.4334	0.000070
203.0892	0.000661
205.7475	-0.000204
208.4084	-0.000309
211.0718	0.000534
213.7376	-0.000098
216.4060	0.000745
219.0769	0.001231
221.7503	-0.001006
224.4262	-0.000309
227.1046	-0.000457
229.7855	0.000218
232.4688	0.000387
235.1546	0.001125
237.8429	-0.001111
240.5337	0.001378
243.2269	-0.000204
245.9225	-0.000120
248.6206	-0.001997
251.3212	-0.000120
254.0242	0.000176
256.7296	0.000513
259.4375	-0.000204
262.1477	-0.000225
264.8604	0.001210
267.5755	0.000513
270.2931	0.000513
273.0130	0.001716
275.7353	0.000956
278.4600	-0.000098
281.1871	0.000387
283.9166	0.000534
286.6484	0.000197
289.3827	-0.001385
292.1193	-0.001364
294.8582	-0.000647
297.5995	-0.000436
300.3432	-0.000204
303.0892	-0.000288
305.8376	-0.000204
308.5883	0.000682
311.3413	0.000176
314.0967	0.000007
316.8543	0.000977
319.6143	0.000387
322.3766	0.000598
325.1412	-0.000309
327.9082	0.000893
330.6774	0.000239
333.4489	0.000239
336.2227	0.000471
338.9987	0.000155
341.7771	-0.000900
344.5577	-0.000183
347.3406	0.000197
350.1257	0.000977
352.9131	0.000703
355.7027	0.000408
358.4946	0.001336
361.2888	-0.001660
364.0851	-0.000373
366.8837	0.000745
369.6845	0.000492
372.4876	0.001315
375.2928	0.000661
378.1003	0.001146
380.9100	0.000323
383.7219	0.000239
386.5359	-0.000120
389.3522	0.001420
392.1706	0.004543
394.9912	0.007665
397.8140	0.011504
400.6390	0.013762
403.4661	0.017306
406.2954	0.020196
409.1269	0.020090
411.9605	0.020322
414.7962	0.023170
417.6341	0.024521
420.4741	0.026883
423.3162	0.027580
426.1605	0.023782
429.0068	0.023698
431.8553	0.024668
434.7059	0.023128
437.5586	0.023445
440.4135	0.023360
443.2703	0.027558
446.1293	0.026440
448.9904	0.022474
451.8535	0.021419
454.7188	0.017137
457.5860	0.017517
460.4554	0.016842
463.3268	0.015217
466.2003	0.013023
469.0758	0.009184
471.9533	0.008066
474.8329	0.007391
477.7145	0.006251
480.5982	0.006378
483.4838	0.005387
486.3715	0.014711
489.2612	0.003741
492.1529	0.004585
495.0466	0.004564
497.9423	0.003403
500.8400	0.002159
503.7397	0.003868
506.6414	0.002686
509.5450	0.003551
512.4506	0.002391
515.3582	0.001800
518.2677	0.003593
521.1792	0.001737
524.0927	0.003509
527.0081	0.003910
529.9254	0.004543
532.8447	0.004880
535.7659	0.007032
538.6890	0.009142
541.6140	0.011610
544.5410	0.012264
547.4699	0.014373
550.4007	0.015829
553.3333	0.020829
556.2679	0.024183
559.2044	0.023782
562.1427	0.031820
565.0829	0.034372
568.0250	0.048739
570.9690	0.097028
573.9149	0.132701
576.8626	0.156750
579.8121	0.174049
582.7635	0.221979
585.7167	0.197381
588.6718	0.165716
591.6288	0.110445
594.5875	0.143882
597.5481	0.130401
600.5105	0.153776
603.4747	0.160273
606.4407	0.140127
609.4085	0.111162
612.3781	0.108799
615.3495	0.107913
618.3227	0.090340
621.2977	0.062599
624.2745	0.073252
627.2530	0.060468
630.2333	0.050110
633.2154	0.035638
636.1992	0.034879
639.1848	0.035343
642.1721	0.027062
645.1612	0.024642
648.1520	0.024563
651.1445	0.022782
654.1388	0.028867
657.1348	0.735932
660.1325	0.038497
663.1319	0.017952
666.1330	0.020636
669.1359	0.017643
672.1404	0.026841
675.1466	0.022875
678.1545	0.025554
681.1641	0.029816
684.1754	0.028677
687.1883	0.038781
690.2029	0.028023
693.2192	0.033107
696.2371	0.024943
699.2567	0.028402
702.2779	0.024774
705.3008	0.019711
708.3253	0.031778
711.3514	0.025554
714.3791	0.029605
717.4085	0.021609
720.4395	0.023888
723.4721	0.023529
726.5063	0.026736
729.5421	0.030596
732.5795	0.034415
735.6185	0.038887
738.6591	0.034077
741.7013	0.030259
744.7450	0.025639
747.7903	0.026419
750.8372	0.035554
753.8856	0.036756
756.9356	0.042220
759.9872	0.050237
763.0403	0.040743
766.0949	0.042072
769.1510	0.042537
772.2087	0.035406
775.2679	0.025027
778.3287	0.023086
781.3909	0.030470
784.4547	0.027706
787.5199	0.024605
790.5867	0.020892
793.6550	0.020280
796.7247	0.018213
799.7959	0.017707
802.8686	0.015259
805.9428	0.015681
809.0185	0.020639
812.0956	0.014247
815.1742	0.014542
818.2542	0.011589
821.3357	0.013825
824.4186	0.008825
827.5029	0.012496
830.5887	0.008087
833.6759	0.007623
836.7646	0.007728
839.8546	0.006568
842.9461	0.004796
846.0390	0.004901
849.1333	0.004922
852.2289	0.005176
855.3260	0.012095
858.4245	0.009564
861.5243	0.004163
864.6255	0.004627
867.7281	0.004205
870.8321	0.005007
873.9374	0.003762
877.0441	0.004100
880.1521	0.006905
883.2615	0.005450
886.3722	0.005387
889.4843	0.004500
892.5977	0.005260
895.7124	0.003910
898.8284	0.001589
901.9458	0.001990
905.0644	0.004184
908.1844	0.004057
911.3057	0.003741
914.4283	0.003235
917.5521	0.003256
920.6773	0.002728
923.8037	0.002897
926.9314	0.000640
930.0604	0.003024
933.1906	0.001695
936.3221	0.001948
939.4549	0.001210
942.5889	0.001758
945.7241	0.001188
948.8606	0.000091
951.9983	0.001231
955.1373	0.000534
958.2775	0.000239
961.4189	0.000872
964.5615	0.002222
967.7053	0.000809
970.8504	0.000766
973.9966	0.000534
977.1440	-0.000267
980.2926	-0.000120
983.4424	-0.000457
986.5934	0.000134
989.7456	0.001568
992.8989	0.000788
996.0534	-0.000035
999.2090	-0.000162
1002.37	0.000281
1005.52	0.000471
1008.68	-0.000963
1011.84	0.000197
1015	-0.000014
1018.17	0.000281
1021.33	-0.000394
1023.03	0.000387