File: Auto_Polymerization/Data/UV_VIS_Spectra/MRG-061-F5_spectra_while_stopped_with_alu_foil/spectrum_2025-06-20_10-18-17.txt
# Wavelength (nm)	Intensity (a.u.)
197.7802	0.000341
200.4334	0.000531
203.0892	0.001754
205.7475	0.000826
208.4084	0.000531
211.0718	0.000341
213.7376	0.000341
216.4060	0.000784
219.0769	0.001269
221.7503	-0.000819
224.4262	0.000278
227.1046	0.000046
229.7855	0.001100
232.4688	0.000383
235.1546	0.001669
237.8429	0.001522
240.5337	-0.000165
243.2269	0.001037
245.9225	0.001543
248.6206	0.000172
251.3212	0.001669
254.0242	0.000805
256.7296	0.000805
259.4375	0.000004
262.1477	0.001121
264.8604	-0.000018
267.5755	0.001142
270.2931	0.000868
273.0130	0.001733
275.7353	0.000742
278.4600	0.000531
281.1871	0.000678
283.9166	0.000383
286.6484	-0.000207
289.3827	0.000742
292.1193	-0.000334
294.8582	0.000931
297.5995	0.000004
300.3432	0.000467
303.0892	-0.000671
305.8376	0.000172
308.5883	0.000847
311.3413	0.001627
314.0967	0.001859
316.8543	0.000931
319.6143	0.000383
322.3766	0.000720
325.1412	-0.000123
327.9082	0.002028
330.6774	0.001353
333.4489	0.001733
336.2227	0.000910
338.9987	-0.000144
341.7771	-0.000144
344.5577	0.000320
347.3406	0.000678
350.1257	0.001269
352.9131	0.000510
355.7027	0.000552
358.4946	0.000910
361.2888	0.002070
364.0851	-0.000271
366.8837	-0.000439
369.6845	0.000615
372.4876	0.001564
375.2928	0.001733
378.1003	0.000404
380.9100	0.001669
383.7219	0.001290
386.5359	0.000214
389.3522	0.001142
392.1706	0.000910
394.9912	0.001922
397.8140	0.002766
400.6390	0.004052
403.4661	0.004727
406.2954	0.006456
409.1269	0.007489
411.9605	0.008122
414.7962	0.009113
417.6341	0.010273
420.4741	0.012951
423.3162	0.015334
426.1605	0.014743
429.0068	0.015291
431.8553	0.018075
434.7059	0.015924
437.5586	0.015376
440.4135	0.017147
443.2703	0.021006
446.1293	0.019783
448.9904	0.018918
451.8535	0.016472
454.7188	0.014364
457.5860	0.014933
460.4554	0.013963
463.3268	0.011791
466.2003	0.011433
469.0758	0.008438
471.9533	0.006646
474.8329	0.008016
477.7145	0.005992
480.5982	0.005170
483.4838	0.006098
486.3715	0.013436
489.2612	0.004094
492.1529	0.003673
495.0466	0.004727
497.9423	0.003188
500.8400	0.002344
503.7397	0.002850
506.6414	0.003905
509.5450	0.002660
512.4506	0.002049
515.3582	0.002281
518.2677	0.002639
521.1792	0.002829
524.0927	0.003335
527.0081	0.003272
529.9254	0.004558
532.8447	0.006161
535.7659	0.006435
538.6890	0.009450
541.6140	0.008417
544.5410	0.012255
547.4699	0.013014
550.4007	0.013710
553.3333	0.019150
556.2679	0.020479
559.2044	0.020352
562.1427	0.027269
565.0829	0.030094
568.0250	0.043063
570.9690	0.085152
573.9149	0.119481
576.8626	0.139092
579.8121	0.159377
582.7635	0.206169
585.7167	0.188983
588.6718	0.152629
591.6288	0.103350
594.5875	0.137721
597.5481	0.118827
600.5105	0.143014
603.4747	0.150795
606.4407	0.129708
609.4085	0.106892
612.3781	0.103371
615.3495	0.103181
618.3227	0.085384
621.2977	0.060269
624.2745	0.069147
627.2530	0.056685
630.2333	0.049536
633.2154	0.036231
636.1992	0.035556
639.1848	0.032161
642.1721	0.025622
645.1612	0.022029
648.1520	0.022553
651.1445	0.022109
654.1388	0.027807
657.1348	0.705432
660.1325	0.038901
663.1319	0.018151
666.1330	0.019281
669.1359	0.018412
672.1404	0.028133
675.1466	0.021702
678.1545	0.024548
681.1641	0.028302
684.1754	0.027458
687.1883	0.035345
690.2029	0.026615
693.2192	0.032140
696.2371	0.022840
699.2567	0.029799
702.2779	0.024802
705.3008	0.019024
708.3253	0.032519
711.3514	0.024527
714.3791	0.027965
717.4085	0.024106
720.4395	0.024949
723.4721	0.022862
726.5063	0.028534
729.5421	0.029820
732.5795	0.034396
735.6185	0.040005
738.6591	0.033384
741.7013	0.029715
744.7450	0.025561
747.7903	0.026805
750.8372	0.034122
753.8856	0.035724
756.9356	0.043759
759.9872	0.048735
763.0403	0.042557
766.0949	0.041776
769.1510	0.040659
772.2087	0.033911
775.2679	0.026025
778.3287	0.021955
781.3909	0.030326
784.4547	0.026109
787.5199	0.025687
790.5867	0.020500
793.6550	0.018307
796.7247	0.017506
799.7959	0.017295
802.8686	0.014068
805.9428	0.017506
809.0185	0.020268
812.0956	0.015587
815.1742	0.013351
818.2542	0.011833
821.3357	0.011939
824.4186	0.007257
827.5029	0.012909
830.5887	0.008628
833.6759	0.006477
836.7646	0.007110
839.8546	0.007763
842.9461	0.004811
846.0390	0.004390
849.1333	0.004326
852.2289	0.005908
855.3260	0.010800
858.4245	0.008143
861.5243	0.006013
864.6255	0.005613
867.7281	0.004853
870.8321	0.004305
873.9374	0.004305
877.0441	0.004242
880.1521	0.007405
883.2615	0.005739
886.3722	0.003715
889.4843	0.004411
892.5977	0.003841
895.7124	0.003947
898.8284	0.003926
901.9458	0.003715
905.0644	0.003462
908.1844	0.003167
911.3057	0.003947
914.4283	0.001922
917.5521	0.003799
920.6773	0.001838
923.8037	0.003841
926.9314	0.004137
930.0604	0.001943
933.1906	0.001838
936.3221	0.002344
939.4549	0.002323
942.5889	0.000067
945.7241	0.001648
948.8606	0.001205
951.9983	0.001269
955.1373	0.002450
958.2775	0.001817
961.4189	0.000278
964.5615	-0.000018
967.7053	0.000341
970.8504	0.002260
973.9966	0.000320
977.1440	0.001395
980.2926	0.000868
983.4424	-0.000018
986.5934	0.001311
989.7456	-0.000777
992.8989	0.000109
996.0534	0.000425
999.2090	0.000109
1002.37	0.001796
1005.52	0.001627
1008.68	-0.000481
1011.84	0.001733
1015	0.000826
1018.17	0.000341
1021.33	0.000446
1023.03	0.000552