File: Auto_Polymerization/Data/UV_VIS_Spectra/MRG-061-F5_spectra_while_stopped_with_alu_foil/spectrum_2025-06-20_10-13-10.txt
# Wavelength (nm)	Intensity (a.u.)
197.7802	0.000684
200.4334	-0.001046
203.0892	0.000473
205.7475	-0.000181
208.4084	0.000241
211.0718	0.000241
213.7376	0.000726
216.4060	0.001612
219.0769	0.000979
221.7503	-0.000371
224.4262	0.000937
227.1046	0.000304
229.7855	0.000241
232.4688	0.000241
235.1546	0.001000
237.8429	-0.000139
240.5337	-0.000455
243.2269	-0.000434
245.9225	0.000325
248.6206	0.000410
251.3212	-0.000012
254.0242	0.001465
256.7296	0.000135
259.4375	-0.000603
262.1477	0.000663
264.8604	0.000621
267.5755	0.001359
270.2931	0.000452
273.0130	0.001760
275.7353	0.000093
278.4600	0.000220
281.1871	-0.000371
283.9166	-0.000498
286.6484	-0.000265
289.3827	0.001085
292.1193	-0.001152
294.8582	-0.000582
297.5995	-0.000730
300.3432	0.001254
303.0892	-0.000181
305.8376	0.001169
308.5883	0.000494
311.3413	0.000431
314.0967	-0.000012
316.8543	0.001465
319.6143	-0.000498
322.3766	0.000389
325.1412	-0.000181
327.9082	-0.000055
330.6774	0.000853
333.4489	-0.000730
336.2227	-0.000498
338.9987	0.000705
341.7771	-0.000181
344.5577	0.000072
347.3406	0.000431
350.1257	-0.000666
352.9131	0.001190
355.7027	0.000979
358.4946	0.000220
361.2888	-0.000645
364.0851	-0.001194
366.8837	0.001254
369.6845	-0.001130
372.4876	-0.000751
375.2928	0.000030
378.1003	0.000473
380.9100	-0.000371
383.7219	0.001380
386.5359	0.000325
389.3522	0.000789
392.1706	0.000895
394.9912	0.001992
397.8140	0.004186
400.6390	0.004566
403.4661	0.005093
406.2954	0.008448
409.1269	0.008153
411.9605	0.007498
414.7962	0.009566
417.6341	0.010368
420.4741	0.012245
423.3162	0.014355
426.1605	0.013047
429.0068	0.015600
431.8553	0.013364
434.7059	0.016191
437.5586	0.018301
440.4135	0.018258
443.2703	0.019988
446.1293	0.018828
448.9904	0.016655
451.8535	0.016845
454.7188	0.014693
457.5860	0.014503
460.4554	0.013765
463.3268	0.011359
466.2003	0.011402
469.0758	0.007688
471.9533	0.007013
474.8329	0.007477
477.7145	0.006465
480.5982	0.005473
483.4838	0.005642
486.3715	0.013870
489.2612	0.003849
492.1529	0.003680
495.0466	0.002773
497.9423	0.002730
500.8400	0.003195
503.7397	0.002962
506.6414	0.002773
509.5450	0.002984
512.4506	0.001823
515.3582	0.002034
518.2677	0.001676
521.1792	0.002815
524.0927	0.003532
527.0081	0.001465
529.9254	0.003659
532.8447	0.004946
535.7659	0.006444
538.6890	0.007520
541.6140	0.007963
544.5410	0.011528
547.4699	0.013068
550.4007	0.012119
553.3333	0.016866
556.2679	0.022984
559.2044	0.020917
562.1427	0.025410
565.0829	0.030242
568.0250	0.044314
570.9690	0.088282
573.9149	0.120815
576.8626	0.139613
579.8121	0.157820
582.7635	0.204298
585.7167	0.188686
588.6718	0.156913
591.6288	0.102291
594.5875	0.134380
597.5481	0.117291
600.5105	0.147545
603.4747	0.150119
606.4407	0.129233
609.4085	0.106194
612.3781	0.106004
615.3495	0.104759
618.3227	0.085244
621.2977	0.059715
624.2745	0.069505
627.2530	0.055707
630.2333	0.048217
633.2154	0.035432
636.1992	0.033533
639.1848	0.032774
642.1721	0.025236
645.1612	0.021037
648.1520	0.023228
651.1445	0.023744
654.1388	0.026611
657.1348	0.697746
660.1325	0.039839
663.1319	0.015473
666.1330	0.020870
669.1359	0.016085
672.1404	0.025115
675.1466	0.021761
678.1545	0.023870
681.1641	0.028533
684.1754	0.028322
687.1883	0.038786
690.2029	0.027541
693.2192	0.032963
696.2371	0.023385
699.2567	0.028322
702.2779	0.024102
705.3008	0.020284
708.3253	0.031761
711.3514	0.026254
714.3791	0.028512
717.4085	0.022161
720.4395	0.020558
723.4721	0.022689
726.5063	0.027035
729.5421	0.028807
732.5795	0.033006
735.6185	0.038470
738.6591	0.033955
741.7013	0.027668
744.7450	0.024946
747.7903	0.025938
750.8372	0.035137
753.8856	0.032563
756.9356	0.041424
759.9872	0.050707
763.0403	0.039862
766.0949	0.042120
769.1510	0.040580
772.2087	0.032584
775.2679	0.024166
778.3287	0.021149
781.3909	0.029398
784.4547	0.025178
787.5199	0.023491
790.5867	0.021402
793.6550	0.019904
796.7247	0.019925
799.7959	0.017351
802.8686	0.013933
805.9428	0.016170
809.0185	0.019651
812.0956	0.014862
815.1742	0.013765
818.2542	0.010537
821.3357	0.012203
824.4186	0.010600
827.5029	0.012857
830.5887	0.008996
833.6759	0.009271
836.7646	0.007456
839.8546	0.006570
842.9461	0.004756
846.0390	0.004671
849.1333	0.004060
852.2289	0.005136
855.3260	0.011591
858.4245	0.008174
861.5243	0.003954
864.6255	0.004081
867.7281	0.003173
870.8321	0.003806
873.9374	0.005705
877.0441	0.003870
880.1521	0.007140
883.2615	0.004967
886.3722	0.004692
889.4843	0.005937
892.5977	0.004271
895.7124	0.002562
898.8284	0.004482
901.9458	0.004123
905.0644	0.004249
908.1844	0.003068
911.3057	0.004608
914.4283	0.002393
917.5521	0.004060
920.6773	0.003237
923.8037	0.003131
926.9314	0.002625
930.0604	0.002519
933.1906	0.002688
936.3221	0.001718
939.4549	0.001338
942.5889	0.000114
945.7241	0.002604
948.8606	-0.000244
951.9983	0.001232
955.1373	0.000283
958.2775	0.001127
961.4189	-0.000329
964.5615	0.000452
967.7053	-0.000097
970.8504	-0.000012
973.9966	0.000410
977.1440	0.000389
980.2926	-0.000033
983.4424	0.002604
986.5934	0.000473
989.7456	-0.000856
992.8989	-0.000476
996.0534	0.001591
999.2090	0.000178
1002.37	-0.000097
1005.52	-0.000076
1008.68	-0.000434
1011.84	0.001570
1015	0.000051
1018.17	0.001654
1021.33	-0.000898
1023.03	0.001169