File: Auto_Polymerization/Data/UV_VIS_Spectra/MRG-061-F5_spectra_while_stopped_with_alu_foil/spectrum_2025-06-20_09-52-42.txt
# Wavelength (nm)	Intensity (a.u.)
197.7802	0.000137
200.4334	0.000264
203.0892	0.000264
205.7475	0.000095
208.4084	-0.001065
211.0718	0.000601
213.7376	0.000580
216.4060	-0.000327
219.0769	0.000770
221.7503	0.000833
224.4262	-0.000559
227.1046	0.000137
229.7855	-0.000686
232.4688	0.000622
235.1546	0.000074
237.8429	-0.000369
240.5337	0.001255
243.2269	0.000854
245.9225	0.000095
248.6206	0.000221
251.3212	0.001318
254.0242	0.000137
256.7296	0.000981
259.4375	0.000264
262.1477	0.000833
264.8604	-0.000285
267.5755	-0.000432
270.2931	0.000285
273.0130	0.000875
275.7353	-0.000264
278.4600	0.001297
281.1871	-0.000791
283.9166	0.000749
286.6484	0.000960
289.3827	0.000095
292.1193	0.000875
294.8582	0.000454
297.5995	-0.000264
300.3432	0.000664
303.0892	0.001761
305.8376	0.001044
308.5883	0.001107
311.3413	0.001993
314.0967	0.000643
316.8543	-0.001234
319.6143	0.000095
322.3766	0.001340
325.1412	0.000918
327.9082	0.000918
330.6774	0.000327
333.4489	0.001466
336.2227	0.000116
338.9987	0.001129
341.7771	-0.000770
344.5577	0.001171
347.3406	-0.000095
350.1257	0.000897
352.9131	-0.000221
355.7027	0.001276
358.4946	0.001382
361.2888	0.001023
364.0851	0.001740
366.8837	0.000411
369.6845	0.000221
372.4876	0.001508
375.2928	-0.000221
378.1003	0.001572
380.9100	0.000559
383.7219	0.001065
386.5359	0.001255
389.3522	0.000939
392.1706	0.000707
394.9912	0.002183
397.8140	0.003365
400.6390	0.006761
403.4661	0.005580
406.2954	0.008174
409.1269	0.009735
411.9605	0.009018
414.7962	0.009335
417.6341	0.012752
420.4741	0.015157
423.3162	0.016697
426.1605	0.016001
429.0068	0.014208
431.8553	0.015937
434.7059	0.017984
437.5586	0.018026
440.4135	0.016507
443.2703	0.022118
446.1293	0.019988
448.9904	0.019355
451.8535	0.017751
454.7188	0.013406
457.5860	0.014503
460.4554	0.014651
463.3268	0.012035
466.2003	0.012225
469.0758	0.011085
471.9533	0.005305
474.8329	0.007288
477.7145	0.005580
480.5982	0.004926
483.4838	0.004673
486.3715	0.015136
489.2612	0.003976
492.1529	0.004314
495.0466	0.001930
497.9423	0.003048
500.8400	0.002563
503.7397	0.003723
506.6414	0.003428
509.5450	0.001825
512.4506	0.000728
515.3582	0.001993
518.2677	0.002837
521.1792	0.001424
524.0927	0.003112
527.0081	0.003006
529.9254	0.005242
532.8447	0.003892
535.7659	0.005917
538.6890	0.007225
541.6140	0.009651
544.5410	0.011064
547.4699	0.013891
550.4007	0.015262
553.3333	0.019988
556.2679	0.021844
559.2044	0.020684
562.1427	0.026590
565.0829	0.032919
568.0250	0.044711
570.9690	0.087682
573.9149	0.124809
576.8626	0.142128
579.8121	0.162906
582.7635	0.205392
585.7167	0.187124
588.6718	0.154574
591.6288	0.101731
594.5875	0.138267
597.5481	0.120991
600.5105	0.148583
603.4747	0.152971
606.4407	0.132530
609.4085	0.105570
612.3781	0.105212
615.3495	0.102532
618.3227	0.085931
621.2977	0.060617
624.2745	0.069540
627.2530	0.056039
630.2333	0.049246
633.2154	0.037138
636.1992	0.036294
639.1848	0.033742
642.1721	0.025469
645.1612	0.021731
648.1520	0.023841
651.1445	0.022678
654.1388	0.026461
657.1348	0.706623
660.1325	0.037629
663.1319	0.018292
666.1330	0.020177
669.1359	0.017562
672.1404	0.026105
675.1466	0.021338
678.1545	0.022856
681.1641	0.027877
684.1754	0.027603
687.1883	0.037391
690.2029	0.027540
693.2192	0.031674
696.2371	0.023510
699.2567	0.029776
702.2779	0.023785
705.3008	0.019988
708.3253	0.032518
711.3514	0.024439
714.3791	0.027413
717.4085	0.023848
720.4395	0.022856
723.4721	0.021506
726.5063	0.027202
729.5421	0.030029
732.5795	0.033235
735.6185	0.037792
738.6591	0.034564
741.7013	0.026611
744.7450	0.023468
747.7903	0.025346
750.8372	0.033235
753.8856	0.034417
756.9356	0.043783
759.9872	0.047896
763.0403	0.040513
766.0949	0.040977
769.1510	0.040766
772.2087	0.033446
775.2679	0.024671
778.3287	0.020156
781.3909	0.029438
784.4547	0.026506
787.5199	0.024481
790.5867	0.022878
793.6550	0.019017
796.7247	0.017498
799.7959	0.018764
802.8686	0.015347
805.9428	0.018216
809.0185	0.018469
812.0956	0.013786
815.1742	0.014440
818.2542	0.010664
821.3357	0.011170
824.4186	0.009377
827.5029	0.011655
830.5887	0.006550
833.6759	0.007605
836.7646	0.007225
839.8546	0.006234
842.9461	0.003533
846.0390	0.004651
849.1333	0.003491
852.2289	0.005200
855.3260	0.009799
858.4245	0.006487
861.5243	0.004947
864.6255	0.006719
867.7281	0.003512
870.8321	0.005917
873.9374	0.004082
877.0441	0.004525
880.1521	0.007921
883.2615	0.005242
886.3722	0.005580
889.4843	0.004926
892.5977	0.004419
895.7124	0.003618
898.8284	0.003871
901.9458	0.004082
905.0644	0.006023
908.1844	0.001972
911.3057	0.003069
914.4283	0.002036
917.5521	0.005221
920.6773	0.002479
923.8037	0.003681
926.9314	0.001466
930.0604	0.002226
933.1906	0.001635
936.3221	0.001804
939.4549	0.001993
942.5889	0.001107
945.7241	0.001677
948.8606	0.000686
951.9983	0.001192
955.1373	0.001044
958.2775	0.000707
961.4189	0.000538
964.5615	-0.000158
967.7053	0.000496
970.8504	-0.000306
973.9966	0.000264
977.1440	0.000960
980.2926	0.000833
983.4424	0.000538
986.5934	0.000327
989.7456	-0.000095
992.8989	-0.000812
996.0534	0.000327
999.2090	-0.000137
1002.37	0.000601
1005.52	-0.000116
1008.68	0.000643
1011.84	0.001129
1015	0.000074
1018.17	0.000074
1021.33	0.000158
1023.03	0.000833