File: Auto_Polymerization/Data/UV_VIS_Spectra/MRG-061-F5_spectra_while_stopped_with_alu_foil/spectrum_2025-06-20_10-02-56_absorbance.txt
# Wavelength	Absorbance
197.78 2.878522
200.433 3.008600
203.089 0.590584
205.748 2.682145
208.408 0.465662
211.072 0.346332
213.738 0.036036
216.406 2.902003
219.077 0.876396
221.75 0.365329
224.426 2.719331
227.105 0.257040
229.786 2.791691
232.469 1.959041
235.155 3.406199
237.843 1.851258
240.534 -3.170555
243.227 2.710117
245.923 3.026125
248.621 2.727541
251.321 -0.053184
254.024 2.872739
256.73 0.097320
259.438 2.975891
262.148 0.875951
264.86 2.662758
267.575 0.426429
270.293 -2.332438
273.013 2.799341
275.735 0.000000
278.46 2.935507
281.187 -3.206016
283.917 0.258832
286.648 0.057992
289.383 0.599145
292.119 3.059185
294.858 0.105401
297.599 2.269513
300.343 0.159520
303.089 2.357935
305.838 0.396984
308.588 0.683584
311.341 3.296446
314.097 2.599883
316.854 3.093772
319.614 0.739869
322.377 0.901738
325.141 3.384174
327.908 0.302379
330.677 3.635484
333.449 0.544308
336.223 3.666237
338.999 3.739731
341.777 3.818094
344.558 0.907736
347.341 3.899164
350.126 0.852525
352.913 3.896857
355.703 2.046965
358.495 0.926571
361.289 2.004716
364.085 1.330638
366.884 1.587962
369.685 1.901446
372.488 4.180183
375.293 1.706658
378.1 0.964346
380.91 1.391748
383.722 1.456126
386.536 1.839218
389.352 2.286439
392.171 1.686873
394.991 1.043640
397.814 0.892947
400.639 0.927969
403.466 0.815792
406.295 0.772925
409.127 0.700607
411.961 0.632872
414.796 0.459507
417.634 0.443910
420.474 0.470889
423.316 0.436762
426.161 0.435498
429.007 0.412305
431.855 0.382783
434.706 0.400382
437.559 0.393483
440.413 0.438287
443.27 0.382612
446.129 0.468662
448.99 0.445004
451.853 0.536775
454.719 0.534801
457.586 0.545122
460.455 0.568223
463.327 0.613353
466.2 0.691361
469.076 0.728312
471.953 0.769260
474.833 0.863551
477.714 0.935732
480.598 0.983214
483.484 1.083023
486.372 1.121047
489.261 1.195226
492.153 1.188556
495.047 1.400466
497.942 1.365260
500.84 1.236755
503.74 1.364821
506.641 1.257128
509.545 1.328782
512.451 1.206681
515.358 1.125439
518.268 1.168137
521.179 1.198184
524.093 1.132362
527.008 1.185713
529.925 0.948053
532.845 1.092531
535.766 0.821963
538.689 0.812546
541.614 0.720296
544.541 0.653625
547.47 0.558035
550.401 0.487765
553.333 0.459295
556.268 0.419874
559.204 0.380296
562.143 0.333585
565.083 0.297496
568.025 0.251030
570.969 0.248100
573.915 0.229915
576.863 0.210387
579.812 0.181413
582.764 0.165012
585.717 0.154173
588.672 0.146623
591.629 0.148521
594.587 0.139858
597.548 0.129592
600.51 0.129408
603.475 0.120493
606.441 0.111293
609.409 0.116554
612.378 0.111500
615.35 0.113981
618.323 0.103231
621.298 0.092850
624.274 0.095478
627.253 0.101257
630.233 0.112830
633.215 0.121038
636.199 0.112215
639.185 0.093541
642.172 0.120666
645.161 0.088173
648.152 0.069500
651.144 0.110044
654.139 0.112928
657.135 0.109290
660.133 0.165314
663.132 0.106830
666.133 0.056273
669.136 0.128716
672.14 0.125672
675.147 0.132997
678.154 0.075947
681.164 0.106890
684.175 0.099075
687.188 0.105223
690.203 0.104009
693.219 0.107546
696.237 0.099882
699.257 0.124454
702.278 0.107026
705.301 0.080664
708.325 0.102505
711.351 0.080155
714.379 0.075866
717.409 0.136973
720.439 0.126431
723.472 0.096988
726.506 0.083778
729.542 0.102411
732.58 0.116568
735.619 0.103664
738.659 0.083342
741.701 0.049447
744.745 0.062529
747.79 0.119066
750.837 0.059822
753.886 0.078351
756.936 0.100070
759.987 0.097087
763.04 0.080056
766.095 0.074160
769.151 0.106605
772.209 0.090417
775.268 0.048494
778.329 0.118499
781.391 0.104647
784.455 0.114891
787.52 0.087135
790.587 0.125565
793.655 0.113823
796.725 0.142645
799.796 0.103960
802.869 0.041769
805.943 0.125786
809.019 0.147754
812.096 0.089870
815.174 0.085235
818.254 0.070467
821.336 0.144587
824.419 0.145348
827.503 0.116099
830.589 0.169785
833.676 0.181198
836.765 0.159596
839.855 0.176555
842.946 0.006327
846.039 0.064513
849.133 0.073908
852.229 0.180685
855.326 0.108101
858.424 0.073730
861.524 0.177116
864.625 0.287391
867.728 0.105122
870.832 0.145640
873.937 0.136760
877.044 -0.020171
880.152 0.277076
883.261 0.046477
886.372 0.132176
889.484 -0.018748
892.598 0.328745
895.712 0.207815
898.828 0.004772
901.946 0.139566
905.064 0.354480
908.184 0.014205
911.306 0.217875
914.428 0.095068
917.552 0.050119
920.677 0.117120
923.804 0.046901
926.931 0.482509
930.06 -0.014182
933.191 0.434232
936.322 0.110501
939.455 0.109610
942.589 1.138910
945.724 0.414856
948.861 0.358955
951.998 3.245019
955.137 -0.030298
958.278 0.176415
961.419 2.653213
964.562 0.149049
967.705 3.152288
970.85 0.177363
973.997 0.550712
977.144 3.192567
980.293 3.008600
983.442 0.003205
986.593 2.820201
989.746 -0.161706
992.899 2.866287
996.053 -0.175500
999.209 -2.607455
1002.37 2.599883
1005.52 3.183555
1008.68 2.691965
1011.84 2.872156
1015 0.000000
1018.17 0.561479
1021.33 -0.602060
1023.03 2.812913