File: Auto_Polymerization/Data/UV_VIS_Spectra/MRG-061-F5_spectra_while_stopped_with_alu_foil/spectrum_2025-06-20_10-08-03_absorbance.txt
# Wavelength	Absorbance
197.78 -0.115795
200.433 3.008600
203.089 0.089653
205.748 0.529857
208.408 -0.004160
211.072 0.642089
213.738 -0.107995
216.406 2.902003
219.077 2.990339
221.75 1.420127
224.426 2.719331
227.105 0.726265
229.786 0.791691
232.469 -0.040959
235.155 0.566721
237.843 1.851258
240.534 0.000000
243.227 -0.102127
245.923 0.943339
248.621 0.644756
251.321 2.736397
254.024 1.668619
256.73 0.384241
259.438 2.975891
262.148 0.633869
264.86 2.662758
267.575 0.532169
270.293 -2.767898
273.013 2.799341
275.735 -2.492760
278.46 0.621640
281.187 0.000000
283.917 2.866287
286.648 -0.181372
289.383 3.074816
292.119 -0.193183
294.858 3.074816
297.599 2.269513
300.343 0.628972
303.089 2.357935
305.838 1.201124
308.588 3.242293
311.341 3.296446
314.097 2.599883
316.854 0.295812
319.614 3.245019
322.377 0.305111
325.141 0.954422
327.908 0.573897
330.677 0.770380
333.449 3.655235
336.223 3.666237
338.999 3.739731
341.777 1.005849
344.558 3.886829
347.341 3.899164
350.126 3.910571
352.913 0.941650
355.703 1.724276
358.495 3.959995
361.289 4.042142
364.085 4.019947
366.884 0.889574
369.685 4.136974
372.488 1.065239
375.293 4.182329
378.1 1.278293
380.91 1.179470
383.722 2.135598
386.536 1.104331
389.352 1.072819
392.171 1.218944
394.991 1.163445
397.814 1.065945
400.639 1.068635
403.466 0.802433
406.295 0.727712
409.127 0.574896
411.961 0.697904
414.796 0.554402
417.634 0.496352
420.474 0.534938
423.316 0.453149
426.161 0.402438
429.007 0.422729
431.855 0.375396
434.706 0.402901
437.559 0.392186
440.413 0.443036
443.27 0.381130
446.129 0.420775
448.99 0.449679
451.853 0.469490
454.719 0.457460
457.586 0.550712
460.455 0.592146
463.327 0.719267
466.2 0.750003
469.076 0.721149
471.953 0.780702
474.833 0.804353
477.714 0.915720
480.598 0.933355
483.484 1.040617
486.372 1.114888
489.261 1.183013
492.153 1.189901
495.047 1.397906
497.942 1.371406
500.84 1.470072
503.74 1.319334
506.641 1.554067
509.545 1.395697
512.451 1.236008
515.358 1.440253
518.268 1.467932
521.179 1.278403
524.093 1.038036
527.008 1.029934
529.925 1.030637
532.845 0.964980
535.766 0.966045
538.689 0.744036
541.614 0.799815
544.541 0.696889
547.47 0.569072
550.401 0.511346
553.333 0.473464
556.268 0.426281
559.204 0.368734
562.143 0.325134
565.083 0.300326
568.025 0.267791
570.969 0.240775
573.915 0.243106
576.863 0.208775
579.812 0.181431
582.764 0.161798
585.717 0.155222
588.672 0.144005
591.629 0.134032
594.587 0.134813
597.548 0.139209
600.51 0.110342
603.475 0.125870
606.441 0.101669
609.409 0.102280
612.378 0.111500
615.35 0.113101
618.323 0.109887
621.298 0.104977
624.274 0.101936
627.253 0.088299
630.233 0.102059
633.215 0.098711
636.199 0.108354
639.185 0.088686
642.172 0.090181
645.161 0.055841
648.152 0.082241
651.144 0.116339
654.139 0.101245
657.135 0.107341
660.133 0.191216
663.132 0.109678
666.133 0.137755
669.136 0.123020
672.14 0.100876
675.147 0.082583
678.154 0.101615
681.164 0.077820
684.175 0.079653
687.188 0.090044
690.203 0.091076
693.219 0.089270
696.237 0.093232
699.257 0.093700
702.278 0.104169
705.301 0.067574
708.325 0.112386
711.351 0.067400
714.379 0.064933
717.409 0.070637
720.439 0.112763
723.472 0.078778
726.506 0.089531
729.542 0.090508
732.58 0.068356
735.619 0.075961
738.659 0.065182
741.701 0.074158
744.745 0.096486
747.79 0.109923
750.837 0.074217
753.886 0.106271
756.936 0.076479
759.987 0.097592
763.04 0.082906
766.095 0.064032
769.151 0.101998
772.209 0.090043
775.268 0.120775
778.329 0.067315
781.391 0.071576
784.455 0.110125
787.52 0.086199
790.587 0.088024
793.655 0.093877
796.725 0.125436
799.796 0.102118
802.869 0.064863
805.943 0.051274
809.019 0.130533
812.096 0.064427
815.174 0.088928
818.254 0.085271
821.336 0.137727
824.419 0.083702
827.503 0.063159
830.589 0.100811
833.676 0.216173
836.765 0.065753
839.855 0.123631
842.946 0.066765
846.039 0.023698
849.133 0.046246
852.229 0.062759
855.326 0.122284
858.424 0.099752
861.524 0.246308
864.625 0.264142
867.728 0.021151
870.832 0.184162
873.937 0.170529
877.044 0.114838
880.152 0.195419
883.261 0.162780
886.372 0.020060
889.484 -0.017917
892.598 0.119781
895.712 0.059123
898.828 0.233041
901.946 0.148859
905.064 0.156970
908.184 -0.058318
911.306 0.257125
914.428 0.335814
917.552 0.102526
920.677 0.093565
923.804 0.354522
926.931 0.053539
930.06 -0.059067
933.191 0.323343
936.322 -0.129880
939.455 0.354046
942.589 0.678822
945.724 0.337452
948.861 3.265290
951.998 0.002975
955.137 1.076678
958.278 -0.492175
961.419 0.386041
964.562 0.182446
967.705 3.152288
970.85 2.710117
973.997 0.196797
977.144 0.699807
980.293 -0.183409
983.442 -0.615424
986.593 2.820201
989.746 2.123852
992.899 2.866287
996.053 2.866287
999.209 0.000000
1002.37 2.599883
1005.52 0.753802
1008.68 -0.463371
1011.84 2.872156
1015 -1.763428
1018.17 0.550483
1021.33 0.000000
1023.03 1.244712