File: Auto_Polymerization/Data/UV_VIS_Spectra/MRG-061-F5_spectra_while_stopped_with_alu_foil/spectrum_2025-06-20_09-16-54_absorbance.txt
# Wavelength	Absorbance
197.78 -0.329651
200.433 0.703249
203.089 1.955447
205.748 2.682145
208.408 0.161252
211.072 -0.086125
213.738 1.104613
216.406 -0.411231
219.077 0.166865
221.75 0.114627
224.426 -0.428036
227.105 -0.750465
229.786 -0.209610
232.469 -0.610333
235.155 -0.056348
237.843 -1.487994
240.534 -1.079181
243.227 -0.176937
245.923 0.139070
248.621 -0.095933
251.321 0.431045
254.024 1.354225
256.73 -0.140715
259.438 0.125858
262.148 -0.144283
264.86 0.093384
267.575 -0.495787
270.293 -2.517196
273.013 -0.367090
275.735 0.000000
278.46 0.677829
281.187 -2.910091
283.917 -0.135014
286.648 0.423321
289.383 0.651571
292.119 0.048885
294.858 0.279632
297.599 -0.921099
300.343 0.251330
303.089 -0.479022
305.838 -0.089356
308.588 0.626343
311.341 -0.074992
314.097 -0.363432
316.854 0.150772
319.614 0.117914
322.377 3.460447
325.141 0.897036
327.908 0.545080
330.677 1.903090
333.449 0.712235
336.223 1.096863
338.999 0.686652
341.777 3.818094
344.558 1.011768
347.341 0.966690
350.126 0.776394
352.913 1.379661
355.703 0.794995
358.495 0.846720
361.289 0.662837
364.085 4.019947
366.884 1.035876
369.685 4.136974
372.488 1.046006
375.293 0.980113
378.1 1.225508
380.91 1.884772
383.722 0.907335
386.536 1.450286
389.352 1.002443
392.171 0.783499
394.991 0.569246
397.814 0.496210
400.639 0.383430
403.466 0.282885
406.295 0.306442
409.127 0.227500
411.961 0.210038
414.796 0.225251
417.634 0.199037
420.474 0.208181
423.316 0.201320
426.161 0.182362
429.007 0.234005
431.855 0.228703
434.706 0.212886
437.559 0.255503
440.413 0.291934
443.27 0.277877
446.129 0.320410
448.99 0.373962
451.853 0.385400
454.719 0.392576
457.586 0.428390
460.455 0.465577
463.327 0.541650
466.2 0.566683
469.076 0.623868
471.953 0.566696
474.833 0.684730
477.714 0.803717
480.598 0.981446
483.484 0.929573
486.372 1.013618
489.261 1.173557
492.153 0.959936
495.047 1.144481
497.942 1.128692
500.84 1.341896
503.74 1.073268
506.641 1.140415
509.545 1.027752
512.451 1.137600
515.358 1.080806
518.268 1.249301
521.179 1.168161
524.093 0.943378
527.008 0.925435
529.925 0.898448
532.845 0.825912
535.766 0.788522
538.689 0.685983
541.614 0.622495
544.541 0.584497
547.47 0.493875
550.401 0.433397
553.333 0.377115
556.268 0.373762
559.204 0.318607
562.143 0.282922
565.083 0.245157
568.025 0.214492
570.969 0.204170
573.915 0.189399
576.863 0.180315
579.812 0.151584
582.764 0.134213
585.717 0.130231
588.672 0.116460
591.629 0.117477
594.587 0.101020
597.548 0.113864
600.51 0.100876
603.475 0.101041
606.441 0.085112
609.409 0.082933
612.378 0.090515
615.35 0.093598
618.323 0.082050
621.298 0.089265
624.274 0.073689
627.253 0.075739
630.233 0.098798
633.215 0.087383
636.199 0.050010
639.185 0.051518
642.172 0.089236
645.161 0.062802
648.152 0.068309
651.144 0.098841
654.139 0.086929
657.135 0.087726
660.133 0.115295
663.132 0.067256
666.133 0.046449
669.136 0.079841
672.14 0.097260
675.147 0.055356
678.154 0.042394
681.164 0.062367
684.175 0.107487
687.188 0.071813
690.203 0.041512
693.219 0.077496
696.237 0.045535
699.257 0.067021
702.278 0.050721
705.301 0.096081
708.325 0.060088
711.351 0.024688
714.379 0.039537
717.409 0.060137
720.439 0.091808
723.472 0.055941
726.506 0.057248
729.542 0.073871
732.58 0.108473
735.619 0.066698
738.659 0.090534
741.701 0.033009
744.745 0.050523
747.79 0.050360
750.837 0.058561
753.886 0.056183
756.936 0.078835
759.987 0.056163
763.04 0.054924
766.095 0.066384
769.151 0.065090
772.209 0.044830
775.268 0.060545
778.329 0.075818
781.391 0.070562
784.455 0.097862
787.52 0.057665
790.587 0.086795
793.655 0.075980
796.725 0.077383
799.796 0.100013
802.869 0.041979
805.943 0.042951
809.019 0.101796
812.096 0.037475
815.174 0.050144
818.254 0.049213
821.336 0.087693
824.419 0.036088
827.503 0.070941
830.589 0.026225
833.676 0.051234
836.765 0.010561
839.855 0.115227
842.946 -0.104053
846.039 0.144966
849.133 0.083503
852.229 0.049041
855.326 0.130328
858.424 0.055009
861.524 0.023284
864.625 0.063102
867.728 0.063267
870.832 0.047349
873.937 0.112321
877.044 0.101199
880.152 0.034979
883.261 -0.000144
886.372 -0.047560
889.484 0.017384
892.598 -0.022134
895.712 0.129710
898.828 0.141080
901.946 -0.089852
905.064 -0.022678
908.184 -0.044215
911.306 0.115180
914.428 -0.038269
917.552 -0.035862
920.677 0.054624
923.804 0.157818
926.931 -0.128346
930.06 -0.168347
933.191 -0.110856
936.322 -0.227017
939.455 0.068163
942.589 -0.248891
945.724 0.453786
948.861 0.332816
951.998 0.651733
955.137 -0.593023
958.278 -0.226356
961.419 2.653213
964.562 -0.122628
967.705 0.514799
970.85 -0.719635
973.997 -0.041872
977.144 -0.053438
980.293 0.228283
983.442 -0.585792
986.593 -0.042526
989.746 -1.277721
992.899 0.071103
996.053 0.188680
999.209 -3.098990
1002.37 0.294532
1005.52 0.146926
1008.68 -0.384675
1011.84 -0.026569
1015 -2.836957
1018.17 0.221424
1021.33 -2.982723
1023.03 -0.188388