File: Auto_Polymerization/Data/UV_VIS_Spectra/MRG-061-F5_spectra_while_stopped_with_alu_foil/spectrum_2025-06-20_10-02-56.txt
# Wavelength (nm)	Intensity (a.u.)
197.7802	-0.000334
200.4334	-0.000609
203.0892	0.000278
205.7475	-0.000419
208.4084	0.000320
211.0718	0.000573
213.7376	0.000890
216.4060	-0.000018
219.0769	0.000130
221.7503	0.000658
224.4262	-0.000946
227.1046	0.000109
229.7855	-0.001938
232.4688	-0.000208
235.1546	-0.000229
237.8429	-0.000714
240.5337	0.001481
243.2269	-0.001221
245.9225	-0.000925
248.6206	-0.001622
251.3212	0.000616
254.0242	-0.000609
256.7296	0.000848
259.4375	-0.001263
262.1477	0.000130
264.8604	-0.001157
267.5755	0.000236
270.2931	0.000215
273.0130	-0.000672
275.7353	-0.000566
278.4600	-0.000334
281.1871	0.001607
283.9166	0.000405
286.6484	0.000763
289.3827	0.000299
292.1193	-0.000081
294.8582	0.000932
297.5995	-0.000503
300.3432	0.001291
303.0892	-0.001305
305.8376	0.000637
308.5883	0.000362
311.3413	-0.000250
314.0967	-0.000144
316.8543	-0.000313
319.6143	0.000320
322.3766	0.000362
325.1412	-0.000165
327.9082	0.001607
330.6774	-0.000186
333.4489	0.001291
336.2227	-0.001178
338.9987	-0.000186
341.7771	-0.000440
344.5577	0.000953
347.3406	-0.000419
350.1257	0.001143
352.9131	-0.000630
355.7027	0.000088
358.4946	0.001080
361.2888	0.000109
364.0851	0.000489
366.8837	0.000299
369.6845	0.000172
372.4876	-0.000123
375.2928	0.000299
378.1003	0.001945
380.9100	0.000890
383.7219	0.000784
386.5359	0.000341
389.3522	0.000130
392.1706	0.000573
394.9912	0.002663
397.8140	0.004267
400.6390	0.004077
403.4661	0.005090
406.2954	0.006061
409.1269	0.006884
411.9605	0.007960
414.7962	0.012202
417.6341	0.012519
420.4741	0.013616
423.3162	0.015663
426.1605	0.013743
429.0068	0.015558
431.8553	0.016613
434.7059	0.016423
437.5586	0.017394
440.4135	0.016550
443.2703	0.021362
446.1293	0.018006
448.9904	0.018681
451.8535	0.014292
454.7188	0.013046
457.5860	0.013996
460.4554	0.013975
463.3268	0.011843
466.2003	0.011274
469.0758	0.008298
471.9533	0.006884
474.8329	0.006293
477.7145	0.005174
480.5982	0.005639
483.4838	0.004436
486.3715	0.012603
489.2612	0.003401
492.1529	0.003233
495.0466	0.002030
497.9423	0.002135
500.8400	0.002916
503.7397	0.002409
506.6414	0.002958
509.5450	0.002283
512.4506	0.002726
515.3582	0.003169
518.2677	0.002810
521.1792	0.002431
524.0927	0.002832
527.0081	0.002473
529.9254	0.004562
532.8447	0.003190
535.7659	0.006609
538.6890	0.006736
541.6140	0.008762
544.5410	0.011464
547.4699	0.013869
550.4007	0.014967
553.3333	0.018069
556.2679	0.020961
559.2044	0.019125
562.1427	0.026258
565.0829	0.031091
568.0250	0.044957
570.9690	0.086956
573.9149	0.119964
576.8626	0.140647
579.8121	0.163736
582.7635	0.205693
585.7167	0.187817
588.6718	0.156117
591.6288	0.103903
594.5875	0.133345
597.5481	0.122455
600.5105	0.144720
603.4747	0.151326
606.4407	0.128892
609.4085	0.106098
612.3781	0.104811
615.3495	0.104051
618.3227	0.087315
621.2977	0.061883
624.2745	0.071212
627.2530	0.056628
630.2333	0.048144
633.2154	0.034974
636.1992	0.034046
639.1848	0.032737
642.1721	0.024410
645.1612	0.022474
648.1520	0.025492
651.1445	0.023001
654.1388	0.026956
657.1348	0.706823
660.1325	0.037618
663.1319	0.017746
666.1330	0.021418
669.1359	0.016740
672.1404	0.025308
675.1466	0.019969
678.1545	0.024464
681.1641	0.026955
684.1754	0.027419
687.1883	0.035228
690.2029	0.027524
693.2192	0.031154
696.2371	0.023915
699.2567	0.027145
702.2779	0.023789
705.3008	0.020328
708.3253	0.030585
711.3514	0.025097
714.3791	0.028516
717.4085	0.020518
720.4395	0.021425
723.4721	0.022396
726.5063	0.028115
729.5421	0.029150
732.5795	0.033328
735.6185	0.038562
738.6591	0.033793
741.7013	0.029994
744.7450	0.025688
747.7903	0.024253
750.8372	0.034046
753.8856	0.036473
756.9356	0.040968
759.9872	0.049052
763.0403	0.040821
766.0949	0.042340
769.1510	0.038351
772.2087	0.033666
775.2679	0.026089
778.3287	0.019483
781.3909	0.028917
784.4547	0.023831
787.5199	0.024084
790.5867	0.019737
793.6550	0.018639
796.7247	0.016972
799.7959	0.017415
802.8686	0.014482
805.9428	0.014714
809.0185	0.017478
812.0956	0.013110
815.1742	0.013701
818.2542	0.012920
821.3357	0.012624
824.4186	0.007960
827.5029	0.011316
830.5887	0.007053
833.6759	0.007496
836.7646	0.006082
839.8546	0.005301
842.9461	0.005111
846.0390	0.005470
849.1333	0.004668
852.2289	0.003824
855.3260	0.011485
858.4245	0.008150
861.5243	0.005364
864.6255	0.003655
867.7281	0.004013
870.8321	0.004583
873.9374	0.004077
877.0441	0.005090
880.1521	0.004752
883.2615	0.005427
886.3722	0.004984
889.4843	0.004710
892.5977	0.002853
895.7124	0.003233
898.8284	0.005702
901.9458	0.003401
905.0644	0.002367
908.1844	0.003549
911.3057	0.002789
914.4283	0.002599
917.5521	0.004161
920.6773	0.002494
923.8037	0.003718
926.9314	0.000721
930.0604	0.002241
933.1906	0.000911
936.3221	0.001101
939.4549	0.002177
942.5889	0.000130
945.7241	0.001143
948.8606	0.000806
951.9983	-0.000144
955.1373	0.000742
958.2775	0.000447
961.4189	-0.000672
964.5615	0.001270
967.7053	-0.000229
970.8504	0.000341
973.9966	0.000278
977.1440	-0.000060
980.2926	-0.000967
983.4424	0.000405
986.5934	-0.001052
989.7456	0.000193
992.8989	-0.000693
996.0534	0.001101
999.2090	0.000405
1002.37	-0.001368
1005.52	-0.000419
1008.68	-0.001221
1011.84	-0.000545
1015	-0.000904
1018.17	0.000468
1021.33	0.000004
1023.03	-0.000735