File: Auto_Polymerization/Data/UV_VIS_Spectra/MRG-061-F5_spectra_while_stopped_with_alu_foil/spectrum_2025-06-20_09-47-35.txt
# Wavelength (nm)	Intensity (a.u.)
197.7802	0.002090
200.4334	0.000276
203.0892	0.000255
205.7475	0.000888
208.4084	0.001120
211.0718	0.001647
213.7376	-0.000336
216.4060	-0.000294
219.0769	-0.000167
221.7503	-0.000209
224.4262	0.001014
227.1046	0.000445
229.7855	0.000107
232.4688	-0.000589
235.1546	0.000740
237.8429	0.001099
240.5337	0.001141
243.2269	0.000613
245.9225	-0.000315
248.6206	0.000656
251.3212	-0.000040
254.0242	-0.000251
256.7296	0.002301
259.4375	0.000065
262.1477	0.000698
264.8604	0.001436
267.5755	0.000107
270.2931	0.000740
273.0130	0.001879
275.7353	0.000677
278.4600	-0.000062
281.1871	0.000845
283.9166	0.001457
286.6484	0.001478
289.3827	0.001077
292.1193	0.000909
294.8582	-0.000230
297.5995	0.001014
300.3432	0.000213
303.0892	-0.000441
305.8376	0.001816
308.5883	0.000107
311.3413	0.001309
314.0967	0.000170
316.8543	0.001162
319.6143	0.001542
322.3766	0.001183
325.1412	0.000803
327.9082	0.002048
330.6774	-0.000146
333.4489	0.000086
336.2227	0.001499
338.9987	0.000761
341.7771	0.000234
344.5577	-0.000125
347.3406	0.001795
350.1257	0.000613
352.9131	-0.000673
355.7027	0.000487
358.4946	0.000951
361.2888	0.000445
364.0851	-0.000272
366.8837	0.000592
369.6845	0.000297
372.4876	0.001394
375.2928	-0.001348
378.1003	0.000592
380.9100	-0.000019
383.7219	0.001752
386.5359	0.001099
389.3522	0.000761
392.1706	0.001204
394.9912	0.002891
397.8140	0.004115
400.6390	0.006498
403.4661	0.007258
406.2954	0.008101
409.1269	0.010274
411.9605	0.011750
414.7962	0.013944
417.6341	0.014535
420.4741	0.016201
423.3162	0.019365
426.1605	0.016517
429.0068	0.018605
431.8553	0.019512
434.7059	0.020757
437.5586	0.020040
440.4135	0.019048
443.2703	0.022486
446.1293	0.020989
448.9904	0.020799
451.8535	0.016454
454.7188	0.015463
457.5860	0.014239
460.4554	0.014872
463.3268	0.012805
466.2003	0.011877
469.0758	0.009029
471.9533	0.008228
474.8329	0.007173
477.7145	0.003862
480.5982	0.007026
483.4838	0.003503
486.3715	0.013606
489.2612	0.003461
492.1529	0.004030
495.0466	0.002533
497.9423	0.003081
500.8400	0.004094
503.7397	0.003419
506.6414	0.002280
509.5450	0.001774
512.4506	0.002596
515.3582	0.001689
518.2677	0.003883
521.1792	0.002406
524.0927	0.003081
527.0081	0.003756
529.9254	0.004558
532.8447	0.004895
535.7659	0.006920
538.6890	0.008017
541.6140	0.010105
544.5410	0.011624
547.4699	0.013438
550.4007	0.014197
553.3333	0.019344
556.2679	0.023267
559.2044	0.020208
562.1427	0.027380
565.0829	0.033876
568.0250	0.047355
570.9690	0.090953
573.9149	0.126030
576.8626	0.149274
579.8121	0.168932
582.7635	0.213606
585.7167	0.198419
588.6718	0.170873
591.6288	0.110843
594.5875	0.141955
597.5481	0.125249
600.5105	0.147502
603.4747	0.158154
606.4407	0.138664
609.4085	0.111138
612.3781	0.106224
615.3495	0.109388
618.3227	0.091143
621.2977	0.060094
624.2745	0.073256
627.2530	0.061149
630.2333	0.051130
633.2154	0.039571
636.1992	0.038348
639.1848	0.035648
642.1721	0.025521
645.1612	0.022795
648.1520	0.025014
651.1445	0.025646
654.1388	0.027663
657.1348	0.740784
660.1325	0.042113
663.1319	0.019038
666.1330	0.020544
669.1359	0.017361
672.1404	0.026979
675.1466	0.024490
678.1545	0.024553
681.1641	0.027865
684.1754	0.027949
687.1883	0.037336
690.2029	0.029721
693.2192	0.032168
696.2371	0.026431
699.2567	0.030248
702.2779	0.024532
705.3008	0.021221
708.3253	0.033075
711.3514	0.025524
714.3791	0.030481
717.4085	0.023668
720.4395	0.025756
723.4721	0.025250
726.5063	0.030080
729.5421	0.031767
732.5795	0.035353
735.6185	0.041428
738.6591	0.034509
741.7013	0.030923
744.7450	0.025671
747.7903	0.027633
750.8372	0.031852
753.8856	0.035416
756.9356	0.044191
759.9872	0.050603
763.0403	0.043073
766.0949	0.044064
769.1510	0.041111
772.2087	0.034804
775.2679	0.024532
778.3287	0.021875
781.3909	0.032273
784.4547	0.026536
787.5199	0.025882
790.5867	0.022676
793.6550	0.020230
796.7247	0.017994
799.7959	0.018669
802.8686	0.015948
805.9428	0.018268
809.0185	0.020398
812.0956	0.013311
815.1742	0.013332
818.2542	0.012889
821.3357	0.012531
824.4186	0.009789
827.5029	0.013817
830.5887	0.008523
833.6759	0.008059
836.7646	0.007047
839.8546	0.006266
842.9461	0.003651
846.0390	0.003419
849.1333	0.004157
852.2289	0.005908
855.3260	0.012678
858.4245	0.007933
861.5243	0.004389
864.6255	0.005844
867.7281	0.004600
870.8321	0.004811
873.9374	0.004389
877.0441	0.004199
880.1521	0.005929
883.2615	0.006245
886.3722	0.006730
889.4843	0.005275
892.5977	0.004094
895.7124	0.006034
898.8284	0.004073
901.9458	0.005697
905.0644	0.003250
908.1844	0.004009
911.3057	0.003524
914.4283	0.001710
917.5521	0.003735
920.6773	0.002322
923.8037	0.001858
926.9314	0.002554
930.0604	0.001837
933.1906	0.002216
936.3221	0.001183
939.4549	0.001689
942.5889	0.002195
945.7241	0.002807
948.8606	0.000107
951.9983	0.002216
955.1373	0.002027
958.2775	0.001183
961.4189	0.000550
964.5615	0.000318
967.7053	0.000740
970.8504	0.002301
973.9966	0.001752
977.1440	0.000677
980.2926	0.000128
983.4424	0.000592
986.5934	0.001373
989.7456	0.000909
992.8989	0.000845
996.0534	0.002006
999.2090	-0.000019
1002.37	-0.000821
1005.52	0.000255
1008.68	-0.000019
1011.84	0.000656
1015	0.001710
1018.17	0.000888
1021.33	0.001141
1023.03	-0.000589