File: Auto_Polymerization/Data/UV_VIS_Spectra/MRG-061-F5_spectra_while_stopped_with_alu_foil/spectrum_2025-06-20_09-16-54.txt
# Wavelength (nm)	Intensity (a.u.)
197.7802	0.001615
200.4334	0.000202
203.0892	0.000012
205.7475	-0.000325
208.4084	0.000645
211.0718	0.001551
213.7376	0.000076
216.4060	0.002057
219.0769	0.000666
221.7503	0.001172
224.4262	0.001404
227.1046	0.001109
229.7855	0.001003
232.4688	0.000371
235.1546	0.002901
237.8429	0.002184
240.5337	0.000012
243.2269	0.000771
245.9225	0.000771
248.6206	0.000666
251.3212	0.000202
254.0242	0.000033
256.7296	0.001467
259.4375	0.000708
262.1477	0.001362
264.8604	0.000371
267.5755	0.001973
270.2931	0.000329
273.0130	0.001467
275.7353	-0.000852
278.4600	0.000181
281.1871	0.000813
283.9166	0.001003
286.6484	0.000329
289.3827	0.000265
292.1193	0.001024
294.8582	0.000624
297.5995	0.001551
300.3432	0.001045
303.0892	0.000687
305.8376	0.001952
308.5883	0.000413
311.3413	0.002352
314.0967	0.000919
316.8543	0.000877
319.6143	0.001340
322.3766	-0.000557
325.1412	0.000307
327.9082	0.000919
330.6774	0.000054
333.4489	0.000877
336.2227	0.000371
338.9987	0.001130
341.7771	-0.001063
344.5577	0.000750
347.3406	0.000856
350.1257	0.001362
352.9131	0.000329
355.7027	0.001572
358.4946	0.001298
361.2888	0.002395
364.0851	-0.000936
366.8837	0.001066
369.6845	-0.000388
372.4876	0.001362
375.2928	0.001593
378.1003	0.001066
380.9100	0.000286
383.7219	0.002774
386.5359	0.000835
389.3522	0.002500
392.1706	0.004587
394.9912	0.007939
397.8140	0.010638
400.6390	0.014285
403.4661	0.017363
406.2954	0.017743
409.1269	0.020462
411.9605	0.021074
414.7962	0.020926
417.6341	0.022001
420.4741	0.024932
423.3162	0.026935
426.1605	0.024616
429.0068	0.023456
431.8553	0.023688
434.7059	0.025290
437.5586	0.023899
440.4135	0.023182
443.2703	0.027188
446.1293	0.025332
448.9904	0.022001
451.8535	0.020252
454.7188	0.018101
457.5860	0.018312
460.4554	0.017701
463.3268	0.013969
466.2003	0.015023
469.0758	0.010554
471.9533	0.010975
474.8329	0.009499
477.7145	0.007012
480.5982	0.005662
483.4838	0.006316
486.3715	0.016140
489.2612	0.003575
492.1529	0.005473
495.0466	0.003660
497.9423	0.003681
500.8400	0.002289
503.7397	0.004714
506.6414	0.003870
509.5450	0.004566
512.4506	0.003196
515.3582	0.003512
518.2677	0.002331
521.1792	0.002605
524.0927	0.004376
527.0081	0.004503
529.9254	0.005114
532.8447	0.005894
535.7659	0.007138
538.6890	0.009015
541.6140	0.010975
544.5410	0.013442
547.4699	0.016077
550.4007	0.016963
553.3333	0.021833
556.2679	0.023309
559.2044	0.022044
562.1427	0.029507
565.0829	0.035073
568.0250	0.048903
570.9690	0.096212
573.9149	0.131694
576.8626	0.150731
579.8121	0.175377
582.7635	0.220810
585.7167	0.198462
588.6718	0.167345
591.6288	0.111602
594.5875	0.145819
597.5481	0.126971
600.5105	0.154547
603.4747	0.158258
606.4407	0.136901
609.4085	0.114638
612.3781	0.110000
615.3495	0.109051
618.3227	0.091679
621.2977	0.062396
624.2745	0.074876
627.2530	0.060055
630.2333	0.049725
633.2154	0.037792
636.1992	0.039289
639.1848	0.036063
642.1721	0.026242
645.1612	0.023826
648.1520	0.025562
651.1445	0.023602
654.1388	0.028619
657.1348	0.742805
660.1325	0.042210
663.1319	0.019439
666.1330	0.021908
669.1359	0.018734
672.1404	0.027019
675.1466	0.023878
678.1545	0.026429
681.1641	0.029865
684.1754	0.026893
687.1883	0.038045
690.2029	0.031784
693.2192	0.033386
696.2371	0.027103
699.2567	0.030983
702.2779	0.027082
705.3008	0.019619
708.3253	0.033723
711.3514	0.028516
714.3791	0.031004
717.4085	0.024489
720.4395	0.023203
723.4721	0.024616
726.5063	0.029886
729.5421	0.031130
732.5795	0.033955
735.6185	0.041988
738.6591	0.033238
741.7013	0.031151
744.7450	0.026408
747.7903	0.028410
750.8372	0.034145
753.8856	0.038383
756.9356	0.043021
759.9872	0.053899
763.0403	0.043253
766.0949	0.043105
769.1510	0.042198
772.2087	0.037392
775.2679	0.025375
778.3287	0.021495
781.3909	0.031278
784.4547	0.024784
787.5199	0.025775
790.5867	0.021580
793.6550	0.020336
796.7247	0.019724
799.7959	0.017574
802.8686	0.014475
805.9428	0.017806
809.0185	0.019429
812.0956	0.014791
815.1742	0.014854
818.2542	0.013568
821.3357	0.014391
824.4186	0.010237
827.5029	0.012556
830.5887	0.009816
833.6759	0.010111
836.7646	0.008572
839.8546	0.006105
842.9461	0.006590
846.0390	0.004545
849.1333	0.004566
852.2289	0.005178
855.3260	0.010912
858.4245	0.008509
861.5243	0.007644
864.6255	0.006126
867.7281	0.004419
870.8321	0.005747
873.9374	0.004313
877.0441	0.003849
880.1521	0.008298
883.2615	0.006042
886.3722	0.007539
889.4843	0.004334
892.5977	0.006400
895.7124	0.003870
898.8284	0.004166
901.9458	0.005768
905.0644	0.005641
908.1844	0.004060
911.3057	0.003533
914.4283	0.003533
917.5521	0.005072
920.6773	0.002880
923.8037	0.002880
926.9314	0.002943
930.0604	0.003196
933.1906	0.003196
936.3221	0.002395
939.4549	0.002395
942.5889	0.003175
945.7241	0.001045
948.8606	0.000856
951.9983	0.000392
955.1373	0.002711
958.2775	0.001130
961.4189	-0.000072
964.5615	0.002374
967.7053	0.000434
970.8504	0.002690
973.9966	0.001088
977.1440	0.001762
980.2926	0.000603
983.4424	0.001572
986.5934	0.000729
989.7456	0.002521
992.8989	0.000624
996.0534	0.000476
999.2090	0.001256
1002.37	0.000202
1005.52	0.001088
1008.68	0.001193
1011.84	0.000792
1015	0.000687
1018.17	0.001024
1021.33	0.000961
1023.03	0.001003