File: Auto_Polymerization/Data/UV_VIS_Spectra/MRG-061-F5_spectra_while_stopped_with_alu_foil/spectrum_2025-06-20_09-06-40_absorbance.txt
# Wavelength	Absorbance
197.78 -0.029427
200.433 1.163502
203.089 0.214427
205.748 2.682145
208.408 2.970812
211.072 0.376946
213.738 2.985426
216.406 0.029847
219.077 -0.099919
221.75 3.183555
224.426 2.719331
227.105 2.294466
229.786 0.453234
232.469 -0.628670
235.155 0.355047
237.843 1.851258
240.534 -3.139249
243.227 2.710117
245.923 3.026125
248.621 2.727541
251.321 2.736397
254.024 0.627226
256.73 0.315598
259.438 2.975891
262.148 2.989895
264.86 -0.420028
267.575 0.089223
270.293 -2.710117
273.013 -0.435177
275.735 -2.980458
278.46 2.935507
281.187 -2.587711
283.917 0.138746
286.648 0.646050
289.383 3.074816
292.119 3.059185
294.858 3.074816
297.599 2.269513
300.343 3.270446
303.089 2.357935
305.838 3.201124
308.588 0.408509
311.341 1.050933
314.097 1.754785
316.854 0.103877
319.614 0.657308
322.377 0.683746
325.141 3.384174
327.908 0.557544
330.677 1.257086
333.449 1.276837
336.223 0.993216
338.999 1.549399
341.777 3.818094
344.558 3.886829
347.341 1.604697
350.126 0.920676
352.913 1.049901
355.703 1.380787
358.495 0.834188
361.289 4.042142
364.085 4.019947
366.884 1.191477
369.685 1.445009
372.488 1.061257
375.293 1.362128
378.1 1.194081
380.91 1.831935
383.722 1.972044
386.536 4.371972
389.352 1.248094
392.171 0.787685
394.991 0.584499
397.814 0.462221
400.639 0.399628
403.466 0.284313
406.295 0.250204
409.127 0.235468
411.961 0.225818
414.796 0.181012
417.634 0.151941
420.474 0.175461
423.316 0.191042
426.161 0.197331
429.007 0.229547
431.855 0.211097
434.706 0.251696
437.559 0.263832
440.413 0.288612
443.27 0.272006
446.129 0.301818
448.99 0.364724
451.853 0.361069
454.719 0.416344
457.586 0.447666
460.455 0.487181
463.327 0.504486
466.2 0.628728
469.076 0.684253
471.953 0.700443
474.833 0.793705
477.714 0.853609
480.598 0.929731
483.484 0.998668
486.372 1.053879
489.261 1.153845
492.153 1.036822
495.047 1.048616
497.942 1.162796
500.84 1.367289
503.74 1.159171
506.641 1.299020
509.545 1.136937
512.451 1.263628
515.358 1.371088
518.268 1.061386
521.179 1.344169
524.093 1.039272
527.008 0.986760
529.925 0.949866
532.845 0.907902
535.766 0.795019
538.689 0.679907
541.614 0.598067
544.541 0.624329
547.47 0.542533
550.401 0.463446
553.333 0.397560
556.268 0.357775
559.204 0.285649
562.143 0.250147
565.083 0.253925
568.025 0.215951
570.969 0.200502
573.915 0.186091
576.863 0.163310
579.812 0.154885
582.764 0.131920
585.717 0.132603
588.672 0.120709
591.629 0.122003
594.587 0.106828
597.548 0.102287
600.51 0.103048
603.475 0.095546
606.441 0.074997
609.409 0.096305
612.378 0.095282
615.35 0.098153
618.323 0.088440
621.298 0.087854
624.274 0.083212
627.253 0.072762
630.233 0.095448
633.215 0.112870
636.199 0.101717
639.185 0.060276
642.172 0.075873
645.161 0.048178
648.152 0.085622
651.144 0.114198
654.139 0.083182
657.135 0.091763
660.133 0.155283
663.132 0.101817
666.133 0.072426
669.136 0.105900
672.14 0.100131
675.147 0.073993
678.154 0.057016
681.164 0.063080
684.175 0.079592
687.188 0.063492
690.203 0.096206
693.219 0.081140
696.237 0.081603
699.257 0.104795
702.278 0.089406
705.301 0.094050
708.325 0.085887
711.351 0.072318
714.379 0.059590
717.409 0.114473
720.439 0.079172
723.472 0.075555
726.506 0.105620
729.542 0.081385
732.58 0.102629
735.619 0.100019
738.659 0.079708
741.701 0.045627
744.745 0.063358
747.79 0.081915
750.837 0.040999
753.886 0.074994
756.936 0.086997
759.987 0.086720
763.04 0.080887
766.095 0.076918
769.151 0.061615
772.209 0.068531
775.268 0.066543
778.329 0.044806
781.391 0.081928
784.455 0.049460
787.52 0.077841
790.587 0.100867
793.655 0.077178
796.725 0.111997
799.796 0.096738
802.869 0.019071
805.943 0.098143
809.019 0.075557
812.096 0.053749
815.174 0.059364
818.254 0.117683
821.336 0.105119
824.419 0.100546
827.503 0.073021
830.589 0.110372
833.676 0.173902
836.765 0.055576
839.855 0.083480
842.946 0.033953
846.039 0.112215
849.133 0.050898
852.229 0.049209
855.326 0.085626
858.424 0.004248
861.524 0.287198
864.625 0.184979
867.728 0.084825
870.832 0.107213
873.937 0.171682
877.044 0.073763
880.152 0.114789
883.261 0.044640
886.372 0.098407
889.484 0.001060
892.598 0.063061
895.712 0.125244
898.828 0.559675
901.946 0.372320
905.064 0.107087
908.184 -0.043894
911.306 0.090336
914.428 0.000000
917.552 0.156632
920.677 0.078172
923.804 0.155262
926.931 0.534264
930.06 -0.144322
933.191 0.164581
936.322 -0.137301
939.455 0.364683
942.589 0.007834
945.724 0.398086
948.861 1.306248
951.998 0.154761
955.137 0.112565
958.278 0.448325
961.419 -0.287304
964.562 -0.093891
967.705 0.244340
970.85 -0.174111
973.997 0.267216
977.144 3.192567
980.293 3.008600
983.442 2.610660
986.593 0.693097
989.746 -1.071494
992.899 -0.030239
996.053 2.866287
999.209 0.000000
1002.37 0.151177
1005.52 0.510534
1008.68 2.691965
1011.84 0.577690
1015 0.000000
1018.17 0.783018
1021.33 0.000000
1023.03 0.225202