File: Auto_Polymerization/Data/UV_VIS_Spectra/MRG-061-F5_spectra_while_stopped_with_alu_foil/spectrum_2025-06-20_10-08-03.txt
# Wavelength (nm)	Intensity (a.u.)
197.7802	0.000987
200.4334	-0.000554
203.0892	0.000881
205.7475	0.000142
208.4084	0.000944
211.0718	0.000290
213.7376	0.001240
216.4060	-0.001124
219.0769	-0.000216
221.7503	0.000058
224.4262	-0.000322
227.1046	0.000037
229.7855	0.000100
232.4688	0.000100
235.1546	0.000691
237.8429	-0.001229
240.5337	-0.001271
243.2269	0.000649
245.9225	0.000121
248.6206	0.000121
251.3212	-0.000723
254.0242	0.000016
256.7296	0.000438
259.4375	-0.002200
262.1477	0.000227
264.8604	-0.000005
267.5755	0.000185
270.2931	0.000586
273.0130	-0.000913
275.7353	0.000311
278.4600	0.000206
281.1871	-0.000659
283.9166	-0.000976
286.6484	0.001324
289.3827	-0.000364
292.1193	0.001788
294.8582	-0.000554
297.5995	-0.000596
300.3432	0.000438
303.0892	-0.000174
305.8376	0.000100
308.5883	-0.000849
311.3413	-0.000427
314.0967	-0.002369
316.8543	0.000628
319.6143	-0.001588
322.3766	0.001430
325.1412	0.000269
327.9082	0.000860
330.6774	0.000733
333.4489	-0.000047
336.2227	-0.000322
338.9987	-0.000343
341.7771	0.000649
344.5577	-0.001145
347.3406	-0.001356
350.1257	-0.000976
352.9131	0.000902
355.7027	0.000185
358.4946	-0.001356
361.2888	-0.001293
364.0851	-0.000195
366.8837	0.001493
369.6845	-0.000111
372.4876	0.001303
375.2928	-0.000153
378.1003	0.000944
380.9100	0.001451
383.7219	0.000164
386.5359	0.001852
389.3522	0.002126
392.1706	0.001683
394.9912	0.002021
397.8140	0.002865
400.6390	0.002949
403.4661	0.005249
406.2954	0.006726
409.1269	0.009195
411.9605	0.006853
414.7962	0.009807
417.6341	0.011095
420.4741	0.011749
423.3162	0.015083
426.1605	0.014830
429.0068	0.015189
431.8553	0.016898
434.7059	0.016328
437.5586	0.017446
440.4135	0.016370
443.2703	0.021435
446.1293	0.020105
448.9904	0.018481
451.8535	0.016687
454.7188	0.015589
457.5860	0.013817
460.4554	0.013226
463.3268	0.009280
466.2003	0.009850
469.0758	0.008436
471.9533	0.006705
474.8329	0.007212
477.7145	0.005418
480.5982	0.006325
483.4838	0.004891
486.3715	0.012783
489.2612	0.003498
492.1529	0.003223
495.0466	0.002042
497.9423	0.002105
500.8400	0.001704
503.7397	0.002675
506.6414	0.001493
509.5450	0.001957
512.4506	0.002548
515.3582	0.001535
518.2677	0.001409
521.1792	0.002021
524.0927	0.003519
527.0081	0.003540
529.9254	0.003772
532.8447	0.004279
535.7659	0.004743
538.6890	0.007887
541.6140	0.007296
544.5410	0.010377
547.4699	0.013521
550.4007	0.014176
553.3333	0.017489
556.2679	0.020654
559.2044	0.019641
562.1427	0.026774
565.0829	0.030889
568.0250	0.043255
570.9690	0.088435
573.9149	0.116375
576.8626	0.141170
579.8121	0.163729
582.7635	0.207221
585.7167	0.187364
588.6718	0.157061
591.6288	0.107428
594.5875	0.134903
597.5481	0.119773
600.5105	0.151215
603.4747	0.149464
606.4407	0.131780
609.4085	0.109643
612.3781	0.104811
615.3495	0.104262
618.3227	0.085987
621.2977	0.060179
624.2745	0.070161
627.2530	0.058343
630.2333	0.049353
633.2154	0.036819
636.1992	0.034350
639.1848	0.033105
642.1721	0.026185
645.1612	0.024211
648.1520	0.024755
651.1445	0.022670
654.1388	0.027691
657.1348	0.710002
660.1325	0.035440
663.1319	0.017630
666.1330	0.017754
669.1359	0.016961
672.1404	0.026795
675.1466	0.022427
678.1545	0.023060
681.1641	0.028821
684.1754	0.028673
687.1883	0.036481
690.2029	0.028356
693.2192	0.032493
696.2371	0.024284
699.2567	0.029137
702.2779	0.023946
705.3008	0.020950
708.3253	0.029897
711.3514	0.025845
714.3791	0.029243
717.4085	0.023904
720.4395	0.022110
723.4721	0.023355
726.5063	0.027745
729.5421	0.029960
732.5795	0.037241
735.6185	0.041102
738.6591	0.035236
741.7013	0.028335
744.7450	0.023756
747.7903	0.024769
750.8372	0.032936
753.8856	0.034202
756.9356	0.043255
759.9872	0.048995
763.0403	0.040554
766.0949	0.043339
769.1510	0.038760
772.2087	0.033695
775.2679	0.022089
778.3287	0.021920
781.3909	0.031205
784.4547	0.024094
787.5199	0.024136
790.5867	0.021519
793.6550	0.019515
796.7247	0.017658
799.7959	0.017489
802.8686	0.013732
805.9428	0.017468
809.0185	0.018185
812.0956	0.013901
815.1742	0.013585
818.2542	0.012487
821.3357	0.012825
824.4186	0.009174
827.5029	0.012783
830.5887	0.008267
833.6759	0.006916
836.7646	0.007549
839.8546	0.005988
842.9461	0.004447
846.0390	0.006009
849.1333	0.004975
852.2289	0.005017
855.3260	0.011116
858.4245	0.007676
861.5243	0.004574
864.6255	0.003856
867.7281	0.004869
870.8321	0.004194
873.9374	0.003772
877.0441	0.003730
880.1521	0.005735
883.2615	0.004152
886.3722	0.006452
889.4843	0.004701
892.5977	0.004616
895.7124	0.004553
898.8284	0.003371
901.9458	0.003329
905.0644	0.003730
908.1844	0.004194
911.3057	0.002548
914.4283	0.001493
917.5521	0.003688
920.6773	0.002633
923.8037	0.001831
926.9314	0.001936
930.0604	0.002485
933.1906	0.001176
936.3221	0.001915
939.4549	0.001240
942.5889	0.000375
945.7241	0.001366
948.8606	-0.000702
951.9983	0.001746
955.1373	0.000058
958.2775	0.002084
961.4189	0.000185
964.5615	0.001176
967.7053	-0.000533
970.8504	-0.000301
973.9966	0.000628
977.1440	0.000311
980.2926	0.001556
983.4424	0.001683
986.5934	-0.000090
989.7456	-0.000491
992.8989	-0.000870
996.0534	-0.000448
999.2090	-0.000681
1002.37	-0.000765
1005.52	0.000269
1008.68	0.001430
1011.84	-0.001546
1015	0.000058
1018.17	0.000480
1021.33	-0.000554
1023.03	0.000037