File: Auto_Polymerization/Data/UV_VIS_Spectra/MRG-061-F-3_pure_compounds_spectra_test/DMSO+Anisole_spectrum_2025-06-19_14-50-05.txt
# Wavelength (nm)	Intensity (a.u.)
197.7802	0.002290
200.4334	-0.000327
203.0892	0.001256
205.7475	0.001488
208.4084	0.001551
211.0718	0.000411
213.7376	0.001825
216.4060	0.001720
219.0769	0.001910
221.7503	0.000285
224.4262	0.002395
227.1046	0.000559
229.7855	0.001298
232.4688	0.001171
235.1546	-0.000137
237.8429	0.001108
240.5337	0.001150
243.2269	0.000306
245.9225	0.001804
248.6206	0.001234
251.3212	0.000939
254.0242	-0.002332
256.7296	0.001002
259.4375	0.000264
262.1477	0.001403
264.8604	0.001509
267.5755	0.000116
270.2931	0.000601
273.0130	0.001572
275.7353	0.001340
278.4600	0.000032
281.1871	0.002184
283.9166	0.000876
286.6484	-0.000454
289.3827	0.000728
292.1193	-0.000137
294.8582	0.001614
297.5995	0.000243
300.3432	0.000517
303.0892	0.000390
305.8376	-0.000200
308.5883	0.001488
311.3413	0.000728
314.0967	0.000770
316.8543	0.002923
319.6143	0.001846
322.3766	0.001804
325.1412	0.001488
327.9082	0.003070
330.6774	0.003302
333.4489	0.003218
336.2227	0.006003
338.9987	0.005349
341.7771	0.006383
344.5577	0.006552
347.3406	0.007333
350.1257	0.007607
352.9131	0.008240
355.7027	0.008789
358.4946	0.008240
361.2888	0.010393
364.0851	0.010941
366.8837	0.012039
369.6845	0.009591
372.4876	0.012714
375.2928	0.015921
378.1003	0.017103
380.9100	0.018390
383.7219	0.020648
386.5359	0.021661
389.3522	0.022336
392.1706	0.027949
394.9912	0.030144
397.8140	0.032908
400.6390	0.031811
403.4661	0.030946
406.2954	0.033246
409.1269	0.033668
411.9605	0.031663
414.7962	0.034195
417.6341	0.033963
420.4741	0.037424
423.3162	0.039386
426.1605	0.038331
429.0068	0.037424
431.8553	0.035293
434.7059	0.039196
437.5586	0.040821
440.4135	0.042045
443.2703	0.050823
446.1293	0.049178
448.9904	0.049009
451.8535	0.046139
454.7188	0.042193
457.5860	0.047067
460.4554	0.045210
463.3268	0.047553
466.2003	0.052343
469.0758	0.043142
471.9533	0.038901
474.8329	0.044113
477.7145	0.043100
480.5982	0.049051
483.4838	0.046856
486.3715	0.157387
489.2612	0.050802
492.1529	0.047722
495.0466	0.046582
497.9423	0.049979
500.8400	0.048270
503.7397	0.054685
506.6414	0.049135
509.5450	0.045506
512.4506	0.043923
515.3582	0.038437
518.2677	0.039091
521.1792	0.035082
524.0927	0.037930
527.0081	0.033837
529.9254	0.038943
532.8447	0.039007
535.7659	0.042509
538.6890	0.041454
541.6140	0.043818
544.5410	0.048629
547.4699	0.049621
550.4007	0.046434
553.3333	0.048587
556.2679	0.051710
559.2044	0.046223
562.1427	0.052934
565.0829	0.059391
568.0250	0.077327
570.9690	0.151204
573.9149	0.188090
576.8626	0.212188
579.8121	0.236962
582.7635	0.290497
585.7167	0.253421
588.6718	0.209487
591.6288	0.135842
594.5875	0.175408
597.5481	0.152808
600.5105	0.184756
603.4747	0.190411
606.4407	0.159075
609.4085	0.131432
612.3781	0.128668
615.3495	0.122042
618.3227	0.106574
621.2977	0.072031
624.2745	0.081315
627.2530	0.070786
630.2333	0.058167
633.2154	0.044366
636.1992	0.040610
639.1848	0.039661
642.1721	0.031583
645.1612	0.026648
648.1520	0.027822
651.1445	0.026603
654.1388	0.031437
657.1348	0.828135
660.1325	0.050460
663.1319	0.021454
666.1330	0.023290
669.1359	0.019909
672.1404	0.030081
675.1466	0.025037
678.1545	0.026979
681.1641	0.031937
684.1754	0.030798
687.1883	0.042889
690.2029	0.032444
693.2192	0.036348
696.2371	0.027527
699.2567	0.032676
702.2779	0.028097
705.3008	0.023687
708.3253	0.036875
711.3514	0.027696
714.3791	0.031537
717.4085	0.026345
720.4395	0.026746
723.4721	0.026261
726.5063	0.030671
729.5421	0.035335
732.5795	0.037508
735.6185	0.046371
738.6591	0.037508
741.7013	0.032592
744.7450	0.027253
747.7903	0.028456
750.8372	0.038859
753.8856	0.042108
756.9356	0.048059
759.9872	0.057196
763.0403	0.045042
766.0949	0.045316
769.1510	0.046730
772.2087	0.041792
775.2679	0.027696
778.3287	0.023075
781.3909	0.031494
784.4547	0.031558
787.5199	0.027358
790.5867	0.025860
793.6550	0.019677
796.7247	0.020247
799.7959	0.020395
802.8686	0.015668
805.9428	0.018116
809.0185	0.021724
812.0956	0.015225
815.1742	0.014866
818.2542	0.014149
821.3357	0.014444
824.4186	0.011722
827.5029	0.013030
830.5887	0.008873
833.6759	0.009844
836.7646	0.007903
839.8546	0.007502
842.9461	0.004906
846.0390	0.005180
849.1333	0.003746
852.2289	0.006995
855.3260	0.011469
858.4245	0.009570
861.5243	0.006088
864.6255	0.005560
867.7281	0.004864
870.8321	0.005159
873.9374	0.004379
877.0441	0.005919
880.1521	0.007776
883.2615	0.004948
886.3722	0.006088
889.4843	0.005223
892.5977	0.004948
895.7124	0.004442
898.8284	0.003513
901.9458	0.004315
905.0644	0.004379
908.1844	0.004231
911.3057	0.003619
914.4283	0.003809
917.5521	0.004927
920.6773	0.002754
923.8037	0.004168
926.9314	0.002606
930.0604	0.002901
933.1906	0.002015
936.3221	0.001467
939.4549	0.002142
942.5889	0.001277
945.7241	0.001994
948.8606	0.000644
951.9983	0.002585
955.1373	-0.000032
958.2775	0.001488
961.4189	-0.000264
964.5615	0.000897
967.7053	0.000538
970.8504	0.000032
973.9966	-0.000369
977.1440	0.001066
980.2926	0.000011
983.4424	0.000053
986.5934	0.000517
989.7456	0.000306
992.8989	-0.000433
996.0534	0.000960
999.2090	-0.000834
1002.37	0.000179
1005.52	0.000348
1008.68	-0.000665
1011.84	0.000116
1015	0.000179
1018.17	0.001403
1021.33	0.001171
1023.03	0.000559