File: Auto_Polymerization/Data/UV_VIS_Spectra/MRG-061-F-3_pure_compounds_spectra_test/DMSO+AIBN_spectrum_average_absorbance.txt
# Wavelength	Absorbance
197.78 -0.062492
200.433 3.008600
203.089 0.708293
205.748 2.682145
208.408 -0.007369
211.072 1.206860
213.738 -0.017172
216.406 0.371803
219.077 0.290501
221.75 0.318451
224.426 0.026484
227.105 0.660998
229.786 0.411479
232.469 -0.120140
235.155 0.608932
237.843 1.851258
240.534 -3.165541
243.227 0.137246
245.923 0.339488
248.621 1.171239
251.321 -0.194043
254.024 -0.227632
256.73 -0.028515
259.438 0.301949
262.148 -0.215580
264.86 0.191466
267.575 -0.182025
270.293 -2.596597
273.013 -0.238882
275.735 -2.354108
278.46 0.030792
281.187 -2.745855
283.917 0.192345
286.648 0.110570
289.383 -0.092796
292.119 3.059185
294.858 0.351361
297.599 -0.607858
300.343 0.547812
303.089 -0.382428
305.838 0.520788
308.588 0.623200
311.341 0.116607
314.097 2.599883
316.854 -0.113593
319.614 0.101068
322.377 0.264547
325.141 0.174927
327.908 0.054771
330.677 0.480452
333.449 0.280303
336.223 0.320471
338.999 0.241144
341.777 0.397973
344.558 0.463255
347.341 0.433781
350.126 0.288046
352.913 0.287583
355.703 0.281500
358.495 0.326728
361.289 0.271658
364.085 0.241217
366.884 0.160272
369.685 0.257133
372.488 0.211420
375.293 0.106199
378.1 0.103092
380.91 0.133557
383.722 0.102739
386.536 0.072247
389.352 0.059899
392.171 0.052436
394.991 0.005895
397.814 0.022600
400.639 0.038128
403.466 0.006490
406.295 0.008557
409.127 0.001007
411.961 -0.001889
414.796 -0.005378
417.634 -0.005162
420.474 0.005274
423.316 0.011865
426.161 -0.001285
429.007 0.011327
431.855 -0.000563
434.706 -0.016653
437.559 -0.005036
440.413 0.012587
443.27 -0.015775
446.129 0.001396
448.99 0.002611
451.853 0.003101
454.719 -0.006299
457.586 0.002795
460.455 0.013382
463.327 0.003075
466.2 0.004081
469.076 0.007172
471.953 -0.007807
474.833 0.002207
477.714 -0.013378
480.598 0.013760
483.484 0.025350
486.372 0.006513
489.261 0.004677
492.153 -0.005061
495.047 0.003648
497.942 -0.001121
500.84 0.006008
503.74 0.005742
506.641 -0.004444
509.545 0.004250
512.451 -0.014916
515.358 -0.003487
518.268 0.004844
521.179 -0.002843
524.093 -0.001884
527.008 0.002780
529.925 0.002723
532.845 -0.003964
535.766 0.002273
538.689 -0.019129
541.614 -0.009559
544.541 0.011799
547.47 0.006397
550.401 -0.015610
553.333 0.002016
556.268 0.010463
559.204 -0.006777
562.143 -0.009756
565.083 0.003954
568.025 -0.000114
570.969 -0.001462
573.915 0.007688
576.863 0.006557
579.812 0.008555
582.764 -0.000716
585.717 0.004533
588.672 -0.001175
591.629 0.011319
594.587 -0.003886
597.548 0.015715
600.51 0.003296
603.475 0.002484
606.441 -0.005045
609.409 0.008295
612.378 0.010068
615.35 0.019279
618.323 0.001021
621.298 0.003202
624.274 0.006724
627.253 -0.002187
630.233 0.011048
633.215 0.012131
636.199 0.002500
639.185 0.004094
642.172 0.007407
645.161 -0.009193
648.152 -0.002129
651.144 0.010412
654.139 0.027207
657.135 0.022888
660.133 0.002810
663.132 0.007957
666.133 -0.004994
669.136 0.016753
672.14 0.018827
675.147 0.004248
678.154 -0.011995
681.164 0.008138
684.175 -0.006917
687.188 0.014811
690.203 0.003717
693.219 0.006027
696.237 0.024684
699.257 0.008295
702.278 0.005514
705.301 0.020583
708.325 0.013554
711.351 -0.023483
714.379 -0.021385
717.409 0.013009
720.439 0.019015
723.472 -0.001950
726.506 0.011617
729.542 0.005221
732.58 0.015084
735.619 0.010668
738.659 0.007770
741.701 0.005749
744.745 0.007993
747.79 0.016580
750.837 -0.008693
753.886 0.020551
756.936 0.007541
759.987 0.011886
763.04 0.004625
766.095 0.010644
769.151 0.008364
772.209 -0.002236
775.268 -0.017594
778.329 -0.013268
781.391 0.015095
784.455 0.002511
787.52 -0.000825
790.587 0.011505
793.655 0.018309
796.725 0.030370
799.796 0.029963
802.869 -0.031261
805.943 0.017883
809.019 0.023394
812.096 -0.009853
815.174 0.015351
818.254 0.012319
821.336 0.062742
824.419 -0.010720
827.503 0.033452
830.589 0.021429
833.676 0.095557
836.765 0.032325
839.855 -0.005099
842.946 -0.037139
846.039 0.047846
849.133 0.048259
852.229 0.001651
855.326 0.069173
858.424 -0.007799
861.524 0.138707
864.625 0.099385
867.728 -0.055062
870.832 -0.020450
873.937 0.114542
877.044 0.015096
880.152 0.023615
883.261 0.031223
886.372 0.005758
889.484 -0.092206
892.598 0.069381
895.712 0.107506
898.828 0.059231
901.946 0.015075
905.064 -0.004519
908.184 -0.024968
911.306 0.078880
914.428 -0.039006
917.552 0.003830
920.677 -0.080708
923.804 0.078888
926.931 -0.077360
930.06 -0.061159
933.191 0.213912
936.322 -0.197572
939.455 0.110209
942.589 0.258976
945.724 0.277003
948.861 0.169772
951.998 -0.123454
955.137 -0.250505
958.278 -0.219382
961.419 0.236572
964.562 0.204023
967.705 0.270904
970.85 -0.467708
973.997 0.121436
977.144 -0.072958
980.293 0.268237
983.442 -0.330354
986.593 2.820201
989.746 -0.792076
992.899 0.486076
996.053 -0.193276
999.209 -2.660865
1002.37 -0.365319
1005.52 0.386287
1008.68 0.095368
1011.84 2.872156
1015 0.000000
1018.17 0.675422
1021.33 -2.881385
1023.03 0.006055