File: Auto_Polymerization/Data/UV_VIS_Spectra/MRG-061-F-3_pure_compounds_spectra_test/DMSO+CTA_spectrum_2025-06-19_14-56-30.txt
# Wavelength (nm)	Intensity (a.u.)
197.7802	0.000028
200.4334	-0.000035
203.0892	0.001315
205.7475	0.000978
208.4084	0.001315
211.0718	-0.000141
213.7376	0.001125
216.4060	-0.000943
219.0769	0.001463
221.7503	-0.000964
224.4262	0.000302
227.1046	-0.000563
229.7855	0.001062
232.4688	0.000113
235.1546	0.000893
237.8429	0.000260
240.5337	-0.001280
243.2269	-0.000394
245.9225	0.000640
248.6206	0.000788
251.3212	0.000324
254.0242	0.000450
256.7296	0.000725
259.4375	0.000028
262.1477	0.001801
264.8604	0.001252
267.5755	0.000155
270.2931	0.001421
273.0130	-0.000035
275.7353	0.002603
278.4600	-0.000816
281.1871	0.000113
283.9166	0.001210
286.6484	0.000914
289.3827	0.000830
292.1193	0.000324
294.8582	0.000387
297.5995	-0.000478
300.3432	0.001759
303.0892	0.000070
305.8376	0.000999
308.5883	-0.000141
311.3413	0.000028
314.0967	-0.001787
316.8543	0.000577
319.6143	-0.000415
322.3766	0.001590
325.1412	0.000767
327.9082	0.000746
330.6774	0.001505
333.4489	0.000028
336.2227	-0.000288
338.9987	0.000661
341.7771	0.000492
344.5577	0.000725
347.3406	-0.000225
350.1257	0.000260
352.9131	0.000197
355.7027	0.001927
358.4946	0.000535
361.2888	0.001104
364.0851	0.001083
366.8837	-0.000309
369.6845	0.001358
372.4876	0.001294
375.2928	0.003130
378.1003	0.003404
380.9100	0.005283
383.7219	0.008933
386.5359	0.014905
389.3522	0.017142
392.1706	0.020054
394.9912	0.023093
397.8140	0.027651
400.6390	0.029191
403.4661	0.028537
406.2954	0.031914
409.1269	0.032969
411.9605	0.030901
414.7962	0.031492
417.6341	0.033623
420.4741	0.036050
423.3162	0.038603
426.1605	0.032399
429.0068	0.036345
431.8553	0.036324
434.7059	0.035818
437.5586	0.037886
440.4135	0.035923
443.2703	0.043879
446.1293	0.043879
448.9904	0.040587
451.8535	0.039046
454.7188	0.034868
457.5860	0.037464
460.4554	0.035374
463.3268	0.032441
466.2003	0.036556
469.0758	0.028474
471.9533	0.023241
474.8329	0.024000
477.7145	0.024802
480.5982	0.027419
483.4838	0.024317
486.3715	0.071712
489.2612	0.021679
492.1529	0.018809
495.0466	0.018408
497.9423	0.016783
500.8400	0.015032
503.7397	0.017416
506.6414	0.015623
509.5450	0.015749
512.4506	0.012436
515.3582	0.011508
518.2677	0.010811
521.1792	0.011149
524.0927	0.012035
527.0081	0.012858
529.9254	0.013534
532.8447	0.013871
535.7659	0.016235
538.6890	0.019041
541.6140	0.021278
544.5410	0.023663
547.4699	0.026849
550.4007	0.030183
553.3333	0.031006
556.2679	0.035712
559.2044	0.031956
562.1427	0.042275
565.0829	0.046601
568.0250	0.063715
570.9690	0.126473
573.9149	0.163549
576.8626	0.191658
579.8121	0.212908
582.7635	0.262413
585.7167	0.235846
588.6718	0.198368
591.6288	0.128245
594.5875	0.169606
597.5481	0.147069
600.5105	0.177308
603.4747	0.182119
606.4407	0.160025
609.4085	0.130419
612.3781	0.122717
615.3495	0.121556
618.3227	0.102712
621.2977	0.072704
624.2745	0.084205
627.2530	0.068969
630.2333	0.058059
633.2154	0.042591
636.1992	0.043372
639.1848	0.038244
642.1721	0.029750
645.1612	0.026242
648.1520	0.027380
651.1445	0.027750
654.1388	0.032905
657.1348	0.815006
660.1325	0.050946
663.1319	0.019536
666.1330	0.023245
669.1359	0.019780
672.1404	0.032716
675.1466	0.025836
678.1545	0.027693
681.1641	0.032716
684.1754	0.033011
687.1883	0.043879
690.2029	0.032927
693.2192	0.036113
696.2371	0.027524
699.2567	0.035902
702.2779	0.029023
705.3008	0.023578
708.3253	0.036282
711.3514	0.032716
714.3791	0.034172
717.4085	0.025878
720.4395	0.027567
723.4721	0.028031
726.5063	0.032420
729.5421	0.033686
732.5795	0.039468
735.6185	0.045103
738.6591	0.037907
741.7013	0.033750
744.7450	0.029592
747.7903	0.028390
750.8372	0.039468
753.8856	0.040587
756.9356	0.049281
759.9872	0.056624
763.0403	0.047529
766.0949	0.046643
769.1510	0.043984
772.2087	0.038308
775.2679	0.028010
778.3287	0.025414
781.3909	0.033602
784.4547	0.030479
787.5199	0.026638
790.5867	0.023473
793.6550	0.023156
796.7247	0.020793
799.7959	0.020772
802.8686	0.016256
805.9428	0.019189
809.0185	0.021974
812.0956	0.016192
815.1742	0.014990
818.2542	0.012711
821.3357	0.015580
824.4186	0.011297
827.5029	0.012774
830.5887	0.008807
833.6759	0.008617
836.7646	0.010136
839.8546	0.006929
842.9461	0.005789
846.0390	0.005283
849.1333	0.004713
852.2289	0.005473
855.3260	0.012901
858.4245	0.009714
861.5243	0.006507
864.6255	0.006127
867.7281	0.005536
870.8321	0.005409
873.9374	0.003489
877.0441	0.006633
880.1521	0.008680
883.2615	0.006380
886.3722	0.005641
889.4843	0.005050
892.5977	0.005219
895.7124	0.004755
898.8284	0.004016
901.9458	0.005325
905.0644	0.003489
908.1844	0.004101
911.3057	0.003805
914.4283	0.002349
917.5521	0.005219
920.6773	0.004586
923.8037	0.002392
926.9314	0.002307
930.0604	0.001547
933.1906	0.002392
936.3221	0.002434
939.4549	0.001611
942.5889	0.000661
945.7241	0.001231
948.8606	0.000936
951.9983	0.001294
955.1373	0.000113
958.2775	0.000239
961.4189	0.000577
964.5615	0.001315
967.7053	0.001737
970.8504	0.000324
973.9966	0.000070
977.1440	0.000387
980.2926	-0.001111
983.4424	-0.000035
986.5934	-0.001787
989.7456	0.001421
992.8989	0.000113
996.0534	-0.000309
999.2090	0.000661
1002.37	0.001294
1005.52	0.000450
1008.68	-0.000795
1011.84	0.000366
1015	0.000155
1018.17	0.000070
1021.33	-0.001132
1023.03	-0.000183