File: Auto_Polymerization/Data/UV_VIS_Spectra/MRG-061-F-3_pure_compounds_spectra_test/DMSO+CTA_spectrum_2025-06-19_14-56-46.txt
# Wavelength (nm)	Intensity (a.u.)
197.7802	-0.000185
200.4334	0.001863
203.0892	-0.000522
205.7475	-0.001156
208.4084	-0.000227
211.0718	0.000575
213.7376	-0.000417
216.4060	0.000765
219.0769	-0.000290
221.7503	0.000026
224.4262	0.001293
227.1046	-0.000354
229.7855	0.000533
232.4688	0.000723
235.1546	0.001145
237.8429	-0.001346
240.5337	-0.000607
243.2269	-0.000227
245.9225	0.000090
248.6206	-0.000396
251.3212	0.000997
254.0242	-0.000417
256.7296	0.000702
259.4375	0.000702
262.1477	-0.000691
264.8604	-0.001156
267.5755	-0.000185
270.2931	-0.000565
273.0130	-0.000522
275.7353	-0.000565
278.4600	-0.000227
281.1871	0.000259
283.9166	0.000681
286.6484	-0.002127
289.3827	0.001673
292.1193	-0.000501
294.8582	0.001799
297.5995	-0.000016
300.3432	0.001230
303.0892	0.000090
305.8376	0.000364
308.5883	0.000026
311.3413	0.000596
314.0967	-0.000586
316.8543	0.000850
319.6143	0.000153
322.3766	-0.000058
325.1412	-0.001873
327.9082	-0.000311
330.6774	-0.000100
333.4489	0.000427
336.2227	0.000343
338.9987	-0.001325
341.7771	-0.000544
344.5577	-0.000185
347.3406	-0.000733
350.1257	0.000449
352.9131	-0.000459
355.7027	0.000174
358.4946	-0.001113
361.2888	0.000913
364.0851	-0.001092
366.8837	0.001018
369.6845	-0.000142
372.4876	-0.000332
375.2928	0.002116
378.1003	0.003847
380.9100	0.004396
383.7219	0.009567
386.5359	0.013620
389.3522	0.015329
392.1706	0.019234
394.9912	0.026390
397.8140	0.028669
400.6390	0.028268
403.4661	0.028859
406.2954	0.033060
409.1269	0.030231
411.9605	0.030928
414.7962	0.032194
417.6341	0.032342
420.4741	0.033799
423.3162	0.041756
426.1605	0.033841
429.0068	0.035740
431.8553	0.037514
434.7059	0.038379
437.5586	0.038632
440.4135	0.036437
443.2703	0.044648
446.1293	0.042537
448.9904	0.042199
451.8535	0.036859
454.7188	0.036817
457.5860	0.036458
460.4554	0.035107
463.3268	0.033609
466.2003	0.036733
469.0758	0.027741
471.9533	0.025567
474.8329	0.025503
477.7145	0.023730
480.5982	0.026200
483.4838	0.025187
486.3715	0.073460
489.2612	0.020353
492.1529	0.020860
495.0466	0.018960
497.9423	0.016744
500.8400	0.015308
503.7397	0.017546
506.6414	0.015667
509.5450	0.014337
512.4506	0.012733
515.3582	0.012037
518.2677	0.012395
521.1792	0.011636
524.0927	0.012374
527.0081	0.011382
529.9254	0.013155
532.8447	0.014781
535.7659	0.018052
538.6890	0.020733
541.6140	0.023055
544.5410	0.024828
547.4699	0.025292
550.4007	0.026516
553.3333	0.031012
556.2679	0.034263
559.2044	0.031477
562.1427	0.041503
565.0829	0.048701
568.0250	0.066769
570.9690	0.124498
573.9149	0.168064
576.8626	0.192422
579.8121	0.213087
582.7635	0.268515
585.7167	0.237846
588.6718	0.198037
591.6288	0.130197
594.5875	0.166819
597.5481	0.146555
600.5105	0.179758
603.4747	0.185246
606.4407	0.158629
609.4085	0.128530
612.3781	0.125532
615.3495	0.127031
618.3227	0.106662
621.2977	0.071455
624.2745	0.081143
627.2530	0.067106
630.2333	0.057735
633.2154	0.043930
636.1992	0.045745
639.1848	0.039603
642.1721	0.031097
645.1612	0.025686
648.1520	0.029295
651.1445	0.028138
654.1388	0.032890
657.1348	0.825259
660.1325	0.049237
663.1319	0.019202
666.1330	0.022976
669.1359	0.019593
672.1404	0.030231
675.1466	0.024237
678.1545	0.025546
681.1641	0.030654
684.1754	0.030379
687.1883	0.041862
690.2029	0.032785
693.2192	0.037366
696.2371	0.029155
699.2567	0.033081
702.2779	0.027825
705.3008	0.024553
708.3253	0.037302
711.3514	0.029640
714.3791	0.032300
717.4085	0.027509
720.4395	0.026770
723.4721	0.026200
726.5063	0.032152
729.5421	0.035551
732.5795	0.039308
735.6185	0.044479
738.6591	0.039688
741.7013	0.031413
744.7450	0.028437
747.7903	0.030759
750.8372	0.037514
753.8856	0.041186
756.9356	0.050431
759.9872	0.057460
763.0403	0.046674
766.0949	0.050030
769.1510	0.044753
772.2087	0.036944
775.2679	0.026960
778.3287	0.025060
781.3909	0.035192
784.4547	0.029788
787.5199	0.028142
790.5867	0.024617
793.6550	0.021978
796.7247	0.020079
799.7959	0.020015
802.8686	0.014506
805.9428	0.018770
809.0185	0.021598
812.0956	0.016343
815.1742	0.014000
818.2542	0.014443
821.3357	0.014042
824.4186	0.010855
827.5029	0.013556
830.5887	0.008596
833.6759	0.006760
836.7646	0.007921
839.8546	0.007414
842.9461	0.005409
846.0390	0.005303
849.1333	0.003910
852.2289	0.005219
855.3260	0.011720
858.4245	0.010960
861.5243	0.005493
864.6255	0.005029
867.7281	0.005831
870.8321	0.004501
873.9374	0.003910
877.0441	0.003298
880.1521	0.007583
883.2615	0.006316
886.3722	0.005810
889.4843	0.004269
892.5977	0.004079
895.7124	0.003108
898.8284	0.004923
901.9458	0.002264
905.0644	0.005303
908.1844	0.003425
911.3057	0.003762
914.4283	0.003699
917.5521	0.005050
920.6773	0.003045
923.8037	0.002770
926.9314	0.001757
930.0604	0.002011
933.1906	0.001082
936.3221	0.000744
939.4549	0.000449
942.5889	0.000216
945.7241	0.000744
948.8606	0.000491
951.9983	0.001103
955.1373	0.001947
958.2775	0.000280
961.4189	-0.000079
964.5615	-0.000121
967.7053	0.000132
970.8504	0.000744
973.9966	-0.000691
977.1440	-0.000839
980.2926	-0.000100
983.4424	0.001462
986.5934	0.000617
989.7456	0.001103
992.8989	-0.000945
996.0534	0.000026
999.2090	-0.001071
1002.37	0.000005
1005.52	0.000807
1008.68	-0.000332
1011.84	-0.000037
1015	-0.001198
1018.17	0.000639
1021.33	-0.000058
1023.03	0.000280