File: Auto_Polymerization/Data/UV_VIS_Spectra/MRG-061-F-3_pure_compounds_spectra_test/DMSO+Anisole_spectrum_average.txt
# Wavelength	Average Intensity
197.78 0.000842
200.433 -0.000073
203.089 0.000800
205.748 0.000532
208.408 0.000546
211.072 -0.000185
213.738 0.000891
216.406 0.000863
219.077 0.001151
221.75 0.000258
224.426 0.000947
227.105 0.000201
229.786 0.000146
232.469 0.000363
235.155 -0.000094
237.843 0.000406
240.534 0.000743
243.227 -0.000452
245.923 0.001207
248.621 0.000454
251.321 0.000504
254.024 -0.000551
256.73 0.001271
259.438 0.000497
262.148 0.001045
264.86 0.000863
267.575 0.000230
270.293 0.000342
273.013 0.001264
275.735 0.001052
278.46 0.000729
281.187 0.001383
283.917 0.000560
286.648 0.000328
289.383 0.000877
292.119 -0.000038
294.858 0.000694
297.599 0.001039
300.343 0.001207
303.089 0.000447
305.838 0.000645
308.588 0.001334
311.341 0.000884
314.097 0.000750
316.854 0.001918
319.614 0.001896
322.377 0.002213
325.141 0.002213
327.908 0.003001
330.677 0.003282
333.449 0.003408
336.223 0.004998
338.999 0.005153
341.777 0.005371
344.558 0.006918
347.341 0.007692
350.126 0.008163
352.913 0.008311
355.703 0.009570
358.495 0.009366
361.289 0.010175
364.085 0.010034
366.884 0.011174
369.685 0.011624
372.488 0.012102
375.293 0.016469
378.1 0.017750
380.91 0.018959
383.722 0.021435
386.536 0.022131
389.352 0.023869
392.171 0.026992
394.991 0.029833
397.814 0.032823
400.639 0.032098
403.466 0.032168
406.295 0.033575
409.127 0.033842
411.961 0.032329
414.796 0.034855
417.634 0.033357
420.474 0.037014
423.316 0.040939
426.161 0.036648
429.007 0.038055
431.855 0.037746
434.706 0.039321
437.559 0.041916
440.413 0.041389
443.27 0.051306
446.129 0.049843
448.99 0.049069
451.853 0.046966
454.719 0.042444
457.586 0.046798
460.455 0.047564
463.327 0.047001
466.2 0.053071
469.076 0.043386
471.953 0.040362
474.833 0.045025
477.714 0.043527
480.598 0.049934
483.484 0.049582
486.372 0.158248
489.261 0.051003
492.153 0.048338
495.047 0.049266
497.942 0.047782
500.84 0.048176
503.74 0.054752
506.641 0.050694
509.545 0.045560
512.451 0.043597
515.358 0.039504
518.268 0.038653
521.179 0.037310
524.093 0.036529
527.008 0.036191
529.925 0.038308
532.845 0.038168
535.766 0.044449
538.689 0.042479
541.614 0.044505
544.541 0.048858
547.47 0.047628
550.401 0.046137
553.333 0.049526
556.268 0.052403
559.204 0.045517
562.143 0.054767
565.083 0.059676
568.025 0.077385
570.969 0.148599
573.915 0.192036
576.863 0.215282
579.812 0.236945
582.764 0.291769
585.717 0.256314
588.672 0.211414
591.629 0.138899
594.587 0.174967
597.548 0.155997
600.51 0.185904
603.475 0.188428
606.441 0.160702
609.409 0.132822
612.378 0.128659
615.35 0.124045
618.323 0.107031
621.298 0.073700
624.274 0.084201
627.253 0.069346
630.233 0.057707
633.215 0.044800
636.199 0.041564
639.185 0.040488
642.172 0.031333
645.161 0.026400
648.152 0.028531
651.144 0.027283
654.139 0.031663
657.135 0.828557
660.133 0.052063
663.132 0.021117
666.133 0.022506
669.136 0.019845
672.14 0.030754
675.147 0.025648
678.154 0.027484
681.164 0.032428
684.175 0.031451
687.188 0.042795
690.203 0.032661
693.219 0.037521
696.237 0.028419
699.257 0.032886
702.278 0.028968
705.301 0.023855
708.325 0.036761
711.351 0.030037
714.379 0.032675
717.409 0.026414
720.439 0.027301
723.472 0.027688
726.506 0.031605
729.542 0.034946
732.58 0.039230
735.619 0.047311
738.659 0.038604
741.701 0.033132
744.745 0.029566
747.79 0.029249
750.837 0.038273
753.886 0.041079
756.936 0.048887
759.987 0.058044
763.04 0.046938
766.095 0.047156
769.151 0.047037
772.209 0.040390
775.268 0.028490
778.329 0.024185
781.391 0.032562
784.455 0.030881
787.52 0.028089
790.587 0.025029
793.655 0.022779
796.725 0.021372
799.796 0.020831
802.869 0.016878
805.943 0.018524
809.019 0.021372
812.096 0.016118
815.174 0.015309
818.254 0.013888
821.336 0.015056
824.419 0.010787
827.503 0.012693
830.589 0.009788
833.676 0.009450
836.765 0.008142
839.855 0.008135
842.946 0.005209
846.039 0.006152
849.133 0.003732
852.229 0.006468
855.326 0.012229
858.424 0.010386
861.524 0.005505
864.625 0.005870
867.728 0.005315
870.832 0.005786
873.937 0.005118
877.044 0.004822
880.152 0.008044
883.261 0.005800
886.372 0.006532
889.484 0.005596
892.598 0.004900
895.712 0.004703
898.828 0.005111
901.946 0.004358
905.064 0.004028
908.184 0.003964
911.306 0.004295
914.428 0.003536
917.552 0.004035
920.677 0.003444
923.804 0.003760
926.931 0.002762
930.06 0.002635
933.191 0.002065
936.322 0.002115
939.455 0.002073
942.589 0.000898
945.724 0.001193
948.861 0.001482
951.998 0.001193
955.137 0.000433
958.278 0.001299
961.419 0.000813
964.562 0.000652
967.705 0.000272
970.85 0.000518
973.997 -0.000326
977.144 0.001468
980.293 0.000462
983.442 0.000363
986.593 0.000159
989.746 0.000012
992.899 -0.000038
996.053 0.001102
999.209 -0.000600
1002.37 -0.000129
1005.52 0.001249
1008.68 -0.000017
1011.84 0.000511
1015 0.000455
1018.17 0.001123
1021.33 0.000821
1023.03 -0.000389