File: Auto_Polymerization/Data/UV_VIS_Spectra/MRG-061-F-3_pure_compounds_spectra_test/DMSO+AIBN_spectrum_2025-06-19_14-42-43.txt
# Wavelength (nm)	Intensity (a.u.)
197.7802	0.001033
200.4334	-0.000443
203.0892	0.001350
205.7475	0.000021
208.4084	0.001097
211.0718	0.000907
213.7376	0.003121
216.4060	0.000274
219.0769	0.000654
221.7503	0.000443
224.4262	0.000949
227.1046	-0.000021
229.7855	0.000380
232.4688	0.001202
235.1546	0.000548
237.8429	-0.000190
240.5337	0.002067
243.2269	0.001603
245.9225	0.000548
248.6206	0.000591
251.3212	0.001729
254.0242	0.001751
256.7296	0.002404
259.4375	0.001012
262.1477	0.001898
264.8604	0.001645
267.5755	0.001497
270.2931	0.000886
273.0130	0.000654
275.7353	0.001097
278.4600	0.001540
281.1871	0.000780
283.9166	0.000464
286.6484	0.001097
289.3827	0.001012
292.1193	0.000316
294.8582	0.001413
297.5995	0.000717
300.3432	0.001434
303.0892	0.000359
305.8376	0.000717
308.5883	0.001392
311.3413	0.001308
314.0967	-0.000591
316.8543	0.001519
319.6143	0.002151
322.3766	0.002510
325.1412	0.001982
327.9082	0.004788
330.6774	0.002847
333.4489	0.001708
336.2227	0.001898
338.9987	0.004302
341.7771	0.002826
344.5577	0.003754
347.3406	0.003775
350.1257	0.004007
352.9131	0.003902
355.7027	0.005441
358.4946	0.004872
361.2888	0.005779
364.0851	0.006306
366.8837	0.008225
369.6845	0.007719
372.4876	0.007972
375.2928	0.011811
378.1003	0.014278
380.9100	0.017294
383.7219	0.017990
386.5359	0.020669
389.3522	0.021175
392.1706	0.026321
394.9912	0.029295
397.8140	0.031509
400.6390	0.031678
403.4661	0.032268
406.2954	0.035221
409.1269	0.034588
411.9605	0.033217
414.7962	0.034377
417.6341	0.036254
420.4741	0.037435
423.3162	0.041653
426.1605	0.036824
429.0068	0.038110
431.8553	0.041970
434.7059	0.042117
437.5586	0.044184
440.4135	0.043847
443.2703	0.054287
446.1293	0.053823
448.9904	0.052388
451.8535	0.049267
454.7188	0.045471
457.5860	0.047200
460.4554	0.047791
463.3268	0.047032
466.2003	0.055046
469.0758	0.044944
471.9533	0.041211
474.8329	0.046040
477.7145	0.045787
480.5982	0.052220
483.4838	0.051250
486.3715	0.163134
489.2612	0.052789
492.1529	0.050322
495.0466	0.049626
497.9423	0.049056
500.8400	0.048972
503.7397	0.054076
506.6414	0.053759
509.5450	0.048339
512.4506	0.045766
515.3582	0.043320
518.2677	0.042898
521.1792	0.038848
524.0927	0.038448
527.0081	0.038469
529.9254	0.039165
532.8447	0.039502
535.7659	0.043214
538.6890	0.043784
541.6140	0.046357
544.5410	0.049900
547.4699	0.049183
550.4007	0.048866
553.3333	0.049394
556.2679	0.052199
559.2044	0.046821
562.1427	0.058209
565.0829	0.060108
568.0250	0.081135
570.9690	0.152715
573.9149	0.199473
576.8626	0.218454
579.8121	0.241885
582.7635	0.298576
585.7167	0.260382
588.6718	0.215628
591.6288	0.144659
594.5875	0.183296
597.5481	0.156216
600.5105	0.192070
603.4747	0.196246
606.4407	0.166276
609.4085	0.132658
612.3781	0.134093
615.3495	0.126669
618.3227	0.109607
621.2977	0.076410
624.2745	0.086365
627.2530	0.071581
630.2333	0.059897
633.2154	0.044627
636.1992	0.044437
639.1848	0.039165
642.1721	0.032150
645.1612	0.028348
648.1520	0.029705
651.1445	0.028940
654.1388	0.031665
657.1348	0.848747
660.1325	0.054177
663.1319	0.022420
666.1330	0.025050
669.1359	0.021765
672.1404	0.033091
675.1466	0.027586
678.1545	0.030159
681.1641	0.033112
684.1754	0.035959
687.1883	0.041759
690.2029	0.035601
693.2192	0.038131
696.2371	0.028936
699.2567	0.034926
702.2779	0.029695
705.3008	0.022525
708.3253	0.037984
711.3514	0.031024
714.3791	0.036339
717.4085	0.028050
720.4395	0.026595
723.4721	0.028577
726.5063	0.033955
729.5421	0.036929
732.5795	0.042455
735.6185	0.047685
738.6591	0.041316
741.7013	0.033470
744.7450	0.028746
747.7903	0.031256
750.8372	0.039945
753.8856	0.042160
756.9356	0.049963
759.9872	0.059158
763.0403	0.048803
766.0949	0.047559
769.1510	0.048065
772.2087	0.041464
775.2679	0.031193
778.3287	0.028767
781.3909	0.035959
784.4547	0.032226
787.5199	0.031172
790.5867	0.025456
793.6550	0.024591
796.7247	0.022714
799.7959	0.020626
802.8686	0.018475
805.9428	0.018306
809.0185	0.023895
812.0956	0.015923
815.1742	0.016472
818.2542	0.015501
821.3357	0.015649
824.4186	0.011790
827.5029	0.014152
830.5887	0.010398
833.6759	0.009006
836.7646	0.008774
839.8546	0.009174
842.9461	0.005357
846.0390	0.006285
849.1333	0.005399
852.2289	0.005884
855.3260	0.011515
858.4245	0.011157
861.5243	0.006095
864.6255	0.006686
867.7281	0.006833
870.8321	0.006981
873.9374	0.004218
877.0441	0.004556
880.1521	0.008225
883.2615	0.005800
886.3722	0.006854
889.4843	0.005526
892.5977	0.005315
895.7124	0.005167
898.8284	0.006011
901.9458	0.005990
905.0644	0.005125
908.1844	0.003016
911.3057	0.004935
914.4283	0.004324
917.5521	0.006559
920.6773	0.004324
923.8037	0.003670
926.9314	0.002615
930.0604	0.003796
933.1906	0.001877
936.3221	0.002552
939.4549	0.003142
942.5889	0.001687
945.7241	0.001772
948.8606	0.003037
951.9983	0.003902
955.1373	0.001118
958.2775	0.001708
961.4189	0.001160
964.5615	0.001982
967.7053	0.001666
970.8504	0.002025
973.9966	0.000464
977.1440	0.003269
980.2926	0.001287
983.4424	0.002004
986.5934	0.000253
989.7456	0.001181
992.8989	0.001223
996.0534	0.002868
999.2090	0.001181
1002.37	0.000127
1005.52	0.000169
1008.68	0.002236
1011.84	0.000253
1015	0.001645
1018.17	-0.000021
1021.33	0.000886
1023.03	0.000464