File: Auto_Polymerization/Data/UV_VIS_Spectra/MRG-061-F-3_pure_compounds_spectra_test/DMSO+AIBN_spectrum_2025-06-19_14-43-24.txt
# Wavelength (nm)	Intensity (a.u.)
197.7802	0.001004
200.4334	0.000688
203.0892	-0.000157
205.7475	-0.000389
208.4084	0.000688
211.0718	-0.001127
213.7376	-0.000072
216.4060	0.000878
219.0769	0.001363
221.7503	0.000582
224.4262	0.000455
227.1046	-0.000051
229.7855	0.000139
232.4688	-0.000600
235.1546	-0.000220
237.8429	-0.000473
240.5337	0.002249
243.2269	-0.000389
245.9225	0.000878
248.6206	-0.000790
251.3212	0.001468
254.0242	0.001089
256.7296	0.000645
259.4375	0.000266
262.1477	0.001004
264.8604	-0.000072
267.5755	0.000477
270.2931	0.001004
273.0130	0.000667
275.7353	0.000329
278.4600	0.000139
281.1871	0.001553
283.9166	0.000455
286.6484	0.000582
289.3827	0.001764
292.1193	-0.000304
294.8582	-0.000346
297.5995	0.001743
300.3432	-0.000790
303.0892	0.000392
305.8376	-0.000515
308.5883	-0.000283
311.3413	0.002228
314.0967	0.000287
316.8543	0.002418
319.6143	0.002059
322.3766	0.000709
325.1412	0.001490
327.9082	0.001278
330.6774	0.000983
333.4489	0.003347
336.2227	0.002671
338.9987	0.003072
341.7771	0.002798
344.5577	0.002207
347.3406	0.003494
350.1257	0.004592
352.9131	0.004381
355.7027	0.004972
358.4946	0.003832
361.2888	0.004760
364.0851	0.005584
366.8837	0.008327
369.6845	0.007082
372.4876	0.009614
375.2928	0.010332
378.1003	0.013793
380.9100	0.016262
383.7219	0.018456
386.5359	0.019934
389.3522	0.021031
392.1706	0.022360
394.9912	0.027889
397.8140	0.031899
400.6390	0.031878
403.4661	0.031857
406.2954	0.034347
409.1269	0.034347
411.9605	0.034326
414.7962	0.035719
417.6341	0.034832
420.4741	0.042239
423.3162	0.040804
426.1605	0.036288
429.0068	0.039981
431.8553	0.039412
434.7059	0.041100
437.5586	0.042239
440.4135	0.044561
443.2703	0.051968
446.1293	0.051061
448.9904	0.050512
451.8535	0.047135
454.7188	0.046059
457.5860	0.052559
460.4554	0.050090
463.3268	0.048528
466.2003	0.053719
469.0758	0.043485
471.9533	0.041480
474.8329	0.045595
477.7145	0.044624
480.5982	0.053931
483.4838	0.050385
486.3715	0.165544
489.2612	0.052812
492.1529	0.050723
495.0466	0.051061
497.9423	0.049499
500.8400	0.049879
503.7397	0.055070
506.6414	0.053403
509.5450	0.048317
512.4506	0.045553
515.3582	0.041564
518.2677	0.041353
521.1792	0.037238
524.0927	0.037533
527.0081	0.037850
529.9254	0.040361
532.8447	0.039454
535.7659	0.042556
538.6890	0.046355
541.6140	0.044941
544.5410	0.050660
547.4699	0.048380
550.4007	0.046376
553.3333	0.052580
556.2679	0.053762
559.2044	0.045975
562.1427	0.057286
565.0829	0.061295
568.0250	0.078832
570.9690	0.155816
573.9149	0.201420
576.8626	0.226173
579.8121	0.244470
582.7635	0.302862
585.7167	0.267345
588.6718	0.218471
591.6288	0.140495
594.5875	0.185487
597.5481	0.161260
600.5105	0.194308
603.4747	0.202306
606.4407	0.167676
609.4085	0.137710
612.3781	0.131674
615.3495	0.129353
618.3227	0.110782
621.2977	0.076595
624.2745	0.088624
627.2530	0.072375
630.2333	0.061443
633.2154	0.045067
636.1992	0.043358
639.1848	0.040340
642.1721	0.031416
645.1612	0.027661
648.1520	0.030877
651.1445	0.028331
654.1388	0.033231
657.1348	0.868683
660.1325	0.053649
663.1319	0.022088
666.1330	0.025015
669.1359	0.020630
672.1404	0.031793
675.1466	0.025948
678.1545	0.030612
681.1641	0.034663
684.1754	0.035360
687.1883	0.045468
690.2029	0.032954
693.2192	0.040340
696.2371	0.027847
699.2567	0.035782
702.2779	0.029683
705.3008	0.023690
708.3253	0.037491
711.3514	0.032152
714.3791	0.036014
717.4085	0.026518
720.4395	0.027636
723.4721	0.027678
726.5063	0.032975
729.5421	0.036542
732.5795	0.042113
735.6185	0.048254
738.6591	0.039327
741.7013	0.033439
744.7450	0.029261
747.7903	0.030169
750.8372	0.039770
753.8856	0.042387
756.9356	0.050449
759.9872	0.059966
763.0403	0.047979
766.0949	0.049436
769.1510	0.048655
772.2087	0.041522
775.2679	0.030548
778.3287	0.024154
781.3909	0.036077
784.4547	0.030063
787.5199	0.028333
790.5867	0.025146
793.6550	0.021685
796.7247	0.021347
799.7959	0.021052
802.8686	0.015840
805.9428	0.019807
809.0185	0.024091
812.0956	0.016768
815.1742	0.016262
818.2542	0.013582
821.3357	0.015396
824.4186	0.011260
827.5029	0.012653
830.5887	0.009488
833.6759	0.009804
836.7646	0.008285
839.8546	0.007820
842.9461	0.006554
846.0390	0.004993
849.1333	0.004908
852.2289	0.006913
855.3260	0.013603
858.4245	0.009087
861.5243	0.004972
864.6255	0.005077
867.7281	0.005541
870.8321	0.005752
873.9374	0.003937
877.0441	0.005415
880.1521	0.008665
883.2615	0.005140
886.3722	0.006997
889.4843	0.006132
892.5977	0.003726
895.7124	0.003072
898.8284	0.004676
901.9458	0.002566
905.0644	0.005394
908.1844	0.004845
911.3057	0.003748
914.4283	0.004149
917.5521	0.004212
920.6773	0.003537
923.8037	0.002650
926.9314	0.003030
930.0604	0.002038
933.1906	0.001764
936.3221	0.001553
939.4549	0.001975
942.5889	-0.000114
945.7241	0.001574
948.8606	-0.001127
951.9983	0.001743
955.1373	0.001933
958.2775	0.001722
961.4189	0.000076
964.5615	0.000603
967.7053	-0.000072
970.8504	0.002165
973.9966	0.001405
977.1440	0.001426
980.2926	0.000434
983.4424	-0.000262
986.5934	0.000181
989.7456	0.000498
992.8989	-0.000811
996.0534	0.000287
999.2090	0.000498
1002.37	0.001827
1005.52	0.000983
1008.68	0.000139
1011.84	-0.000663
1015	-0.000557
1018.17	-0.000093
1021.33	0.000962
1023.03	0.000730