File: Auto_Polymerization/Data/UV_VIS_Spectra/MRG-061-F-3_pure_compounds_spectra_test/DMSO+MMA_spectrum_average.txt
# Wavelength	Average Intensity
197.78 0.000967
200.433 -0.000067
203.089 -0.000032
205.748 0.000313
208.408 0.000799
211.072 0.000482
213.738 0.000806
216.406 -0.000686
219.077 -0.000074
221.75 0.000186
224.426 0.000060
227.105 -0.000257
229.786 0.000693
232.469 0.000095
235.155 0.000897
237.843 0.000046
240.534 0.001396
243.227 0.000770
245.923 0.000735
248.621 0.000496
251.321 0.000475
254.024 0.000208
256.73 0.001333
259.438 0.001178
262.148 0.000433
264.86 -0.000580
267.575 0.001755
270.293 0.000243
273.013 0.000566
275.735 -0.000172
278.46 0.000960
281.187 0.000412
283.917 0.000559
286.648 -0.000172
289.383 0.000693
292.119 0.000032
294.858 0.001206
297.599 0.000475
300.343 0.000763
303.089 0.000573
305.838 0.000742
308.588 0.000552
311.341 0.000721
314.097 0.000229
316.854 0.001249
319.614 0.002093
322.377 0.001537
325.141 0.002740
327.908 0.002803
330.677 0.003106
333.449 0.004484
336.223 0.003781
338.999 0.005849
341.777 0.005188
344.558 0.007059
347.341 0.007284
350.126 0.007798
352.913 0.009240
355.703 0.010442
358.495 0.008803
361.289 0.010027
364.085 0.010429
366.884 0.011737
369.685 0.013341
372.488 0.013734
375.293 0.016000
378.1 0.019067
380.91 0.020495
383.722 0.022556
386.536 0.023484
389.352 0.024990
392.171 0.028528
394.991 0.030948
397.814 0.033888
400.639 0.034507
403.466 0.034198
406.295 0.035914
409.127 0.035534
411.961 0.034381
414.796 0.037363
417.634 0.036336
420.474 0.039733
423.316 0.043989
426.161 0.039748
429.007 0.041085
431.855 0.042787
434.706 0.043828
437.559 0.043659
440.413 0.044433
443.27 0.052761
446.129 0.052895
448.99 0.052466
451.853 0.050602
454.719 0.046430
457.586 0.050067
460.455 0.052396
463.327 0.048555
466.2 0.058094
469.076 0.045924
471.953 0.043427
474.833 0.046796
477.714 0.047028
480.598 0.053380
483.484 0.052516
486.372 0.181992
489.261 0.053261
492.153 0.052410
495.047 0.053570
497.942 0.049863
500.84 0.051214
503.74 0.057109
506.641 0.055090
509.545 0.048864
512.451 0.047317
515.358 0.041661
518.268 0.040521
521.179 0.039284
524.093 0.039459
527.008 0.038039
529.925 0.041183
532.845 0.039368
535.766 0.046557
538.689 0.044637
541.614 0.047219
544.541 0.051489
547.47 0.050384
550.401 0.051024
553.333 0.052839
556.268 0.056448
559.204 0.047380
562.143 0.059916
565.083 0.062033
568.025 0.083614
570.969 0.153930
573.915 0.204408
576.863 0.228937
579.812 0.248824
582.764 0.320373
585.717 0.277089
588.672 0.227412
591.629 0.144983
594.587 0.187928
597.548 0.164298
600.51 0.199232
603.475 0.199471
606.441 0.176856
609.409 0.141747
612.378 0.135177
615.35 0.131195
618.323 0.111738
621.298 0.079633
624.274 0.088834
627.253 0.072858
630.233 0.063264
633.215 0.046086
636.199 0.044011
639.185 0.042456
642.172 0.032117
645.161 0.028182
648.152 0.030055
651.144 0.029060
654.139 0.033485
657.135 0.924592
660.133 0.066681
663.132 0.021715
666.133 0.024845
669.136 0.021388
672.14 0.032502
675.147 0.026263
678.154 0.029217
681.164 0.034149
684.175 0.034170
687.188 0.043913
690.203 0.034985
693.219 0.039410
696.237 0.029970
699.257 0.036477
702.278 0.029013
705.301 0.024322
708.325 0.039410
711.351 0.032488
714.379 0.035478
717.409 0.028894
720.439 0.028022
723.472 0.028739
726.506 0.035281
729.542 0.036104
732.58 0.042836
735.619 0.047746
738.659 0.041289
741.701 0.035689
744.745 0.030870
747.79 0.032032
750.837 0.041134
753.886 0.041394
756.936 0.051565
759.987 0.060942
763.04 0.048801
766.095 0.052164
769.151 0.048998
772.209 0.042942
775.268 0.031531
778.329 0.026108
781.391 0.034816
784.455 0.031553
787.52 0.028873
790.587 0.026249
793.655 0.023252
796.725 0.021613
799.796 0.021325
802.869 0.017456
805.943 0.019404
809.019 0.023034
812.096 0.016647
815.174 0.017688
818.254 0.014241
821.336 0.015887
824.419 0.011385
827.503 0.013847
830.589 0.011470
833.676 0.010323
836.765 0.008037
839.855 0.007952
842.946 0.005723
846.039 0.006018
849.133 0.005033
852.229 0.006672
855.326 0.014325
858.424 0.010414
861.524 0.006328
864.625 0.007467
867.728 0.005659
870.832 0.005969
873.937 0.005533
877.044 0.005026
880.152 0.007868
883.261 0.007115
886.372 0.006567
889.484 0.005223
892.598 0.005082
895.712 0.004843
898.828 0.004527
901.946 0.004773
905.064 0.005111
908.184 0.004822
911.306 0.003239
914.428 0.003127
917.552 0.004041
920.677 0.003387
923.804 0.002585
926.931 0.002951
930.06 0.002212
933.191 0.001614
936.322 0.002205
939.455 0.001678
942.589 0.001059
945.724 0.001664
948.861 0.000608
951.998 0.001150
955.137 0.001164
958.278 0.000700
961.419 0.000658
964.562 0.001720
967.705 -0.000004
970.85 0.000714
973.997 0.001685
977.144 0.001016
980.293 0.000742
983.442 0.000109
986.593 0.000221
989.746 0.000046
992.899 -0.000510
996.053 0.000707
999.209 0.000067
1002.37 0.000271
1005.52 0.001206
1008.68 0.000292
1011.84 0.001530
1015 0.000264
1018.17 -0.000179
1021.33 0.000088
1023.03 0.000017