File: Auto_Polymerization/Data/UV_VIS_Spectra/MRG-061-F-3_pure_compounds_spectra_test/DMSO+CTA_spectrum_average_absorbance.txt
# Wavelength	Absorbance
197.78 1.215764
200.433 -0.070581
203.089 0.920685
205.748 2.682145
208.408 0.223400
211.072 3.104487
213.738 0.386636
216.406 2.902003
219.077 0.294857
221.75 3.183555
224.426 0.605388
227.105 2.294466
229.786 -0.236067
232.469 -0.663173
235.155 0.314884
237.843 1.851258
240.534 0.000000
243.227 2.710117
245.923 0.459098
248.621 0.367706
251.321 0.040915
254.024 0.159248
256.73 0.130846
259.438 0.480347
262.148 0.374997
264.86 0.278942
267.575 2.799341
270.293 -2.465383
273.013 2.799341
275.735 -2.924796
278.46 2.935507
281.187 -2.475671
283.917 -0.197046
286.648 2.940516
289.383 0.089390
292.119 3.059185
294.858 0.176640
297.599 2.269513
300.343 0.131827
303.089 0.056905
305.838 0.427337
308.588 0.709539
311.341 1.470371
314.097 2.599883
316.854 0.280191
319.614 0.872107
322.377 0.421429
325.141 3.384174
327.908 1.220593
330.677 0.607727
333.449 0.871331
336.223 3.666237
338.999 1.297251
341.777 1.434279
344.558 1.421446
347.341 1.384616
350.126 1.386825
352.913 2.070782
355.703 1.070803
358.495 3.959995
361.289 1.140139
364.085 2.622007
366.884 1.791792
369.685 1.651253
372.488 1.182360
375.293 0.715461
378.1 0.681324
380.91 0.598727
383.722 0.361304
386.536 0.260273
389.352 0.189636
392.171 0.144106
394.991 0.072830
397.814 0.075245
400.639 0.078134
403.466 0.060007
406.295 0.044014
409.127 0.033257
411.961 0.032616
414.796 0.040354
417.634 0.022742
420.474 0.051286
423.316 0.021679
426.161 0.043072
429.007 0.042740
431.855 0.024924
434.706 0.044440
437.559 0.050128
440.413 0.076376
443.27 0.065155
446.129 0.087932
448.99 0.094978
451.853 0.099214
454.719 0.088581
457.586 0.120478
460.455 0.164216
463.327 0.173571
466.2 0.161524
469.076 0.185937
471.953 0.210797
474.833 0.253423
477.714 0.266210
480.598 0.303809
483.484 0.333223
486.372 0.335928
489.261 0.394799
492.153 0.399374
495.047 0.418016
497.942 0.449392
500.84 0.485191
503.74 0.500874
506.641 0.536396
509.545 0.508340
512.451 0.522786
515.358 0.553927
518.268 0.537770
521.179 0.523083
524.093 0.486921
527.008 0.488291
529.925 0.476103
532.845 0.429862
535.766 0.413108
538.689 0.330786
541.614 0.319629
544.541 0.315195
547.47 0.273472
550.401 0.198514
553.333 0.220199
556.268 0.199220
559.204 0.155745
562.143 0.132597
565.083 0.114719
568.025 0.086825
570.969 0.091467
573.915 0.089103
576.863 0.077680
579.812 0.063232
582.764 0.035474
585.717 0.046069
588.672 0.036130
591.629 0.049978
594.587 0.033666
597.548 0.046699
600.51 0.033113
603.475 0.037170
606.441 0.008001
609.409 0.021158
612.378 0.028880
615.35 0.033484
618.323 0.019416
621.298 0.009940
624.274 0.025960
627.253 0.017179
630.233 0.027156
633.215 0.027513
636.199 0.002866
639.185 0.008413
642.172 0.024732
645.161 0.008699
648.152 0.038264
651.144 0.026451
654.139 0.032383
657.135 0.014075
660.133 -0.044050
663.132 0.032121
666.133 0.016335
669.136 0.045468
672.14 0.040167
675.147 0.043479
678.154 0.036372
681.164 0.023540
684.175 0.032411
687.188 0.018511
690.203 0.011591
693.219 0.038612
696.237 0.019009
699.257 0.011466
702.278 0.036445
705.301 0.008837
708.325 0.009558
711.351 -0.023414
714.379 0.000986
717.409 0.008971
720.439 0.018999
723.472 0.007241
726.506 0.022198
729.542 0.023329
732.58 0.046324
735.619 0.032185
738.659 0.021461
741.701 0.012678
744.745 0.008396
747.79 0.022776
750.837 0.002989
753.886 0.035201
756.936 0.022080
759.987 0.025666
763.04 0.015143
766.095 0.010600
769.151 0.031141
772.209 0.027837
775.268 0.018538
778.329 0.002519
781.391 0.041093
784.455 0.005065
787.52 0.023213
790.587 0.037498
793.655 0.046427
796.725 0.039354
799.796 0.025840
802.869 -0.002092
805.943 0.017745
809.019 0.043815
812.096 -0.002712
815.174 0.041203
818.254 0.043016
821.336 0.067642
824.419 -0.013832
827.503 0.067393
830.589 0.040756
833.676 0.108251
836.765 -0.017018
839.855 0.039797
842.946 -0.015223
846.039 0.062928
849.133 0.094094
852.229 0.059482
855.326 0.063916
858.424 -0.024479
861.524 0.164193
864.625 0.106220
867.728 -0.056407
870.832 0.127999
873.937 0.114947
877.044 -0.017689
880.152 0.053804
883.261 -0.025007
886.372 0.046279
889.484 -0.005548
892.598 0.112411
895.712 0.115469
898.828 0.096345
901.946 0.057860
905.064 0.097844
908.184 0.032704
911.306 0.063659
914.428 -0.020838
917.552 -0.001671
920.677 -0.110987
923.804 0.217883
926.931 0.016780
930.06 0.004023
933.191 0.115912
936.322 -0.051832
939.455 0.258821
942.589 0.545283
945.724 0.544507
948.861 0.501113
951.998 0.166200
955.137 -0.298197
958.278 0.119152
961.419 -0.264293
964.562 0.661788
967.705 0.228009
970.85 -0.064400
973.997 2.994757
977.144 1.183967
980.293 1.967207
983.442 -0.136752
986.593 2.820201
989.746 -0.936846
992.899 0.550317
996.053 -0.008194
999.209 -2.064458
1002.37 -0.362960
1005.52 1.405403
1008.68 1.029207
1011.84 0.273366
1015 0.000000
1018.17 0.885371
1021.33 -2.198657
1023.03 2.812913