File: Auto_Polymerization/Data/UV_VIS_Spectra/MRG-061-F-3_pure_compounds_spectra_test/DMSO+AIBN_spectrum_average_referenced_to_DMSO.txt
# Wavelength	Intensity diff (sample - DMSO)
197.78 0.000117
200.433 -0.001061
203.089 -0.000871
205.748 -0.000888
208.408 0.000016
211.072 -0.001193
213.738 0.000039
216.406 -0.000459
219.077 -0.000477
221.75 -0.000793
224.426 -0.000031
227.105 -0.000154
229.786 -0.000379
232.469 0.000029
235.155 -0.001921
237.843 -0.000203
240.534 0.001783
243.227 -0.000139
245.923 -0.000576
248.621 -0.000498
251.321 0.000307
254.024 0.000514
256.73 0.000072
259.438 -0.000474
262.148 0.000628
264.86 -0.000164
267.575 0.000328
270.293 0.000620
273.013 0.000462
275.735 0.000556
278.46 -0.000059
281.187 0.001036
283.917 -0.000263
286.648 -0.000196
289.383 0.000283
292.119 -0.001229
294.858 -0.000659
297.599 0.000568
300.343 -0.001336
303.089 0.000322
305.838 -0.001110
308.588 -0.001331
311.341 -0.000466
314.097 -0.000516
316.854 0.000371
319.614 -0.000365
322.377 -0.001317
325.141 -0.000803
327.908 -0.000382
330.677 -0.002891
333.449 -0.002150
336.223 -0.002420
338.999 -0.002340
341.777 -0.003947
344.558 -0.005054
347.341 -0.005008
350.126 -0.003946
352.913 -0.003819
355.703 -0.004677
358.495 -0.004822
361.289 -0.005124
364.085 -0.004462
366.884 -0.003573
369.685 -0.006125
372.488 -0.005836
375.293 -0.003301
378.1 -0.003786
380.91 -0.005807
383.722 -0.004721
386.536 -0.003609
389.352 -0.003239
392.171 -0.003169
394.991 -0.000397
397.814 -0.001691
400.639 -0.002903
403.466 -0.000494
406.295 -0.000701
409.127 -0.000080
411.961 0.000149
414.796 0.000438
417.634 0.000416
420.474 -0.000486
423.316 -0.001154
426.161 0.000111
429.007 -0.001035
431.855 0.000052
434.706 0.001614
437.559 0.000502
440.413 -0.001297
443.27 0.001907
446.129 -0.000170
448.99 -0.000312
451.853 -0.000350
454.719 0.000653
457.586 -0.000315
460.455 -0.001569
463.327 -0.000343
466.2 -0.000518
469.076 -0.000727
471.953 0.000734
474.833 -0.000233
477.714 0.001396
480.598 -0.001692
483.484 -0.003045
486.372 -0.002479
489.261 -0.000571
492.153 0.000585
495.047 -0.000427
497.942 0.000128
500.84 -0.000691
503.74 -0.000733
506.641 0.000550
509.545 -0.000474
512.451 0.001533
515.358 0.000341
518.268 -0.000459
521.179 0.000252
524.093 0.000167
527.008 -0.000242
529.925 -0.000253
532.845 0.000362
535.766 -0.000229
538.689 0.001970
541.614 0.001024
544.541 -0.001384
547.47 -0.000733
550.401 0.001684
553.333 -0.000241
556.268 -0.001312
559.204 0.000722
562.143 0.001286
565.083 -0.000559
568.025 0.000021
570.969 0.000519
573.915 -0.003574
576.863 -0.003421
579.812 -0.004850
582.764 0.000496
585.717 -0.002781
588.672 0.000593
591.629 -0.003763
594.587 0.001654
597.548 -0.005865
600.51 -0.001474
603.475 -0.001139
606.441 0.001946
609.409 -0.002625
612.378 -0.003105
615.35 -0.005874
618.323 -0.000260
621.298 -0.000563
624.274 -0.001363
627.253 0.000361
630.233 -0.001568
633.215 -0.001273
636.199 -0.000253
639.185 -0.000381
642.172 -0.000545
645.161 0.000589
648.152 0.000147
651.144 -0.000702
654.139 -0.002123
657.135 -0.046669
660.133 -0.000355
663.132 -0.000412
666.133 0.000282
669.136 -0.000852
672.14 -0.001434
675.147 -0.000264
678.154 0.000816
681.164 -0.000640
684.175 0.000553
687.188 -0.001505
690.203 -0.000298
693.219 -0.000550
696.237 -0.001663
699.257 -0.000684
702.278 -0.000384
705.301 -0.001133
708.325 -0.001190
711.351 0.001677
714.379 0.001714
717.409 -0.000830
720.439 -0.001228
723.472 0.000126
726.506 -0.000900
729.542 -0.000441
732.58 -0.001488
735.619 -0.001188
738.659 -0.000726
741.701 -0.000442
744.745 -0.000541
747.79 -0.001195
750.837 0.000790
753.886 -0.002019
756.936 -0.000888
759.987 -0.001656
763.04 -0.000520
766.095 -0.001216
769.151 -0.000935
772.209 0.000214
775.268 0.001206
778.329 0.000794
781.391 -0.001257
784.455 -0.000179
787.52 0.000056
790.587 -0.000689
793.655 -0.001000
796.725 -0.001592
799.796 -0.001475
802.869 0.001190
805.943 -0.000793
809.019 -0.001288
812.096 0.000370
815.174 -0.000579
818.254 -0.000425
821.336 -0.002369
824.419 0.000278
827.503 -0.001096
830.589 -0.000502
833.676 -0.002247
836.765 -0.000630
839.855 0.000094
842.946 0.000463
846.039 -0.000662
849.133 -0.000582
852.229 -0.000022
855.326 -0.002169
858.424 0.000175
861.524 -0.002205
864.625 -0.001449
867.728 0.000691
870.832 0.000309
873.937 -0.001295
877.044 -0.000166
880.152 -0.000476
883.261 -0.000419
886.372 -0.000089
889.484 0.001067
892.598 -0.000898
895.712 -0.001144
898.828 -0.000735
901.946 -0.000160
905.064 0.000056
908.184 0.000217
911.306 -0.000765
914.428 0.000304
917.552 -0.000041
920.677 0.000667
923.804 -0.000688
926.931 0.000427
930.06 0.000328
933.191 -0.000963
936.322 0.000818
939.455 -0.000628
942.589 -0.000804
945.724 -0.001401
948.861 -0.000596
951.998 0.000578
955.137 0.000540
958.278 0.000441
961.419 -0.000189
964.562 -0.000671
967.705 -0.000659
970.85 0.000993
973.997 -0.000241
977.144 0.000285
980.293 -0.000470
983.442 0.000465
986.593 -0.000667
989.746 0.000691
992.899 -0.000495
996.053 0.000412
999.209 0.000609
1002.37 0.000525
1005.52 -0.000899
1008.68 -0.000097
1011.84 -0.001018
1015 0.000138
1018.17 -0.001345
1021.33 0.000807
1023.03 -0.000009