File: Auto_Polymerization/Data/UV_VIS_Spectra/MRG-061-F-3_pure_compounds_spectra_test/DMSO+MMA_spectrum_average_referenced_to_DMSO.txt
# Wavelength	Intensity diff (sample - DMSO)
197.78 0.000211
200.433 -0.001087
203.089 -0.001115
205.748 -0.000168
208.408 -0.000136
211.072 -0.000790
213.738 -0.000161
216.406 -0.001484
219.077 -0.001052
221.75 -0.001340
224.426 -0.000464
227.105 -0.000454
229.786 0.000074
232.469 0.000004
235.155 -0.001651
237.843 -0.000025
240.534 0.001715
243.227 0.000257
245.923 -0.000327
248.621 -0.000038
251.321 -0.000070
254.024 -0.000538
256.73 0.000272
259.438 0.000232
262.148 -0.000544
264.86 -0.001040
267.575 0.001125
270.293 0.000468
273.013 -0.000064
275.735 0.000158
278.46 0.000098
281.187 0.000891
283.917 -0.000176
286.648 -0.001044
289.383 -0.000495
292.119 -0.001114
294.858 0.000018
297.599 0.000289
300.343 -0.001101
303.089 0.000345
305.838 -0.000847
308.588 -0.001195
311.341 -0.001258
314.097 -0.000169
316.854 0.000008
319.614 0.000335
322.377 -0.001350
325.141 0.000318
327.908 -0.000421
330.677 -0.001214
333.449 -0.000037
336.223 -0.000856
338.999 0.000357
341.777 -0.001390
344.558 -0.000647
347.341 -0.000644
350.126 -0.000341
352.913 0.001354
355.703 0.000637
358.495 -0.000317
361.289 -0.000992
364.085 -0.000041
366.884 0.000159
369.685 -0.000367
372.488 -0.001408
375.293 0.000783
378.1 0.001150
380.91 -0.001440
383.722 0.000146
386.536 -0.000065
389.352 -0.000151
392.171 0.000665
394.991 0.001503
397.814 0.000540
400.639 -0.000032
403.466 0.000893
406.295 -0.000017
409.127 0.000984
411.961 0.000200
414.796 0.002212
417.634 0.001544
420.474 -0.000533
423.316 0.001170
426.161 0.002287
429.007 0.000882
431.855 0.002679
434.706 0.002539
437.559 0.000618
440.413 -0.000970
443.27 0.001208
446.129 -0.000081
448.99 0.000418
451.853 0.001413
454.719 0.001733
457.586 0.000962
460.455 0.000686
463.327 -0.000065
466.2 0.002703
469.076 0.001534
471.953 0.002960
474.833 0.000833
477.714 0.002405
480.598 -0.000872
483.484 -0.001189
486.372 0.015451
489.261 -0.000052
492.153 0.002503
495.047 0.002524
497.942 0.000357
500.84 0.000917
503.74 0.001306
506.641 0.001618
509.545 0.000191
512.451 0.003443
515.358 -0.000641
518.268 -0.000864
521.179 0.000916
524.093 0.001048
527.008 0.000113
529.925 0.000706
532.845 -0.000107
535.766 0.002694
538.689 0.000890
541.614 0.001204
544.541 -0.000148
547.47 0.000256
550.401 0.005009
553.333 0.000812
556.268 0.001331
559.204 0.001471
562.143 0.003312
565.083 0.000355
568.025 0.003478
570.969 -0.000027
573.915 0.000720
576.863 0.000631
579.812 0.000192
582.764 0.019605
585.717 0.009229
588.672 0.008599
591.629 -0.001285
594.587 0.003921
597.548 -0.000734
600.51 0.004276
603.475 -0.000242
606.441 0.010316
609.409 0.002988
612.378 -0.000313
615.35 -0.004083
618.323 0.000994
621.298 0.002999
624.274 0.000112
627.253 0.001361
630.233 0.000837
633.215 -0.000129
636.199 -0.000073
639.185 0.001851
642.172 -0.000111
645.161 0.000649
648.152 0.000139
651.144 -0.000574
654.139 -0.001476
657.135 0.015515
660.133 0.011637
663.132 -0.000980
666.133 0.000464
669.136 -0.001127
672.14 -0.001299
675.147 -0.000861
678.154 0.000078
681.164 -0.000328
684.175 -0.000275
687.188 -0.000973
690.203 0.000013
693.219 -0.000498
696.237 -0.000129
699.257 0.000324
702.278 -0.001424
705.301 -0.000155
708.325 0.000683
711.351 0.002304
714.379 0.001519
717.409 0.000768
720.439 -0.000643
723.472 0.000739
726.506 0.001184
729.542 -0.000798
732.58 -0.000753
735.619 -0.001212
738.659 0.000347
741.701 0.002078
744.745 0.001204
747.79 0.000129
750.837 0.002060
753.886 -0.002290
756.936 -0.000019
759.987 -0.000398
763.04 -0.000283
766.095 0.001940
769.151 -0.000023
772.209 0.001484
775.268 0.002360
778.329 0.000513
781.391 -0.001980
784.455 0.000505
787.52 -0.000562
790.587 -0.000105
793.655 -0.000972
796.725 -0.001958
799.796 -0.000800
802.869 0.001512
805.943 -0.000253
809.019 -0.001527
812.096 0.000523
815.174 0.001016
818.254 -0.000955
821.336 -0.001724
824.419 0.000261
827.503 -0.000937
830.589 0.001043
833.676 -0.001054
836.765 -0.000746
839.855 -0.000008
842.946 0.000537
846.039 -0.000328
849.133 -0.000501
852.229 0.000875
855.326 -0.000406
858.424 0.000756
861.524 -0.001737
864.625 0.000383
867.728 0.000547
870.832 -0.000440
873.937 -0.000053
877.044 0.000167
880.152 -0.001126
883.261 0.001075
886.372 -0.000190
889.484 0.000712
892.598 -0.001000
895.712 -0.000374
898.828 -0.001238
901.946 0.000083
905.064 -0.000243
908.184 0.001155
911.306 -0.001367
914.428 -0.000108
917.552 -0.000629
920.677 0.000121
923.804 -0.001557
926.931 0.000761
930.06 0.000043
933.191 -0.000862
936.322 0.000785
939.455 -0.001124
942.589 -0.000731
945.724 -0.001307
948.861 -0.001234
951.998 -0.000608
955.137 0.000472
958.278 0.000029
961.419 0.000208
964.562 -0.000070
967.705 -0.001424
970.85 0.000201
973.997 0.000697
977.144 -0.000542
980.293 -0.000278
983.442 -0.000299
986.593 -0.000440
989.746 -0.000087
992.899 -0.001245
996.053 -0.000028
999.209 0.000218
1002.37 -0.000127
1005.52 -0.000320
1008.68 -0.000200
1011.84 0.000785
1015 0.000584
1018.17 -0.001884
1021.33 0.000134
1023.03 -0.000633