File: Auto_Polymerization/Data/UV_VIS_Spectra/MRG-061-F-3_pure_compounds_spectra_test/DMSO+Anisole_spectrum_average_absorbance.txt
# Wavelength	Absorbance
197.78 -0.046790
200.433 3.008600
203.089 0.131538
205.748 -0.043767
208.408 0.233619
211.072 3.104487
213.738 0.035549
216.406 -0.034008
219.077 -0.070736
221.75 0.771935
224.426 -0.257019
227.105 -0.008730
229.786 0.627338
232.469 -0.600865
235.155 3.406199
237.843 -0.757268
240.534 -2.870989
243.227 2.710117
245.923 -0.055583
248.621 0.070485
251.321 0.033966
254.024 2.872739
256.73 -0.078430
259.438 0.279535
262.148 -0.029222
264.86 -0.273253
267.575 0.437613
270.293 -2.534026
273.013 -0.302407
275.735 -3.022016
278.46 0.072780
281.187 -3.140822
283.917 0.118099
286.648 0.424643
289.383 0.131817
292.119 3.059185
294.858 0.233457
297.599 -0.747103
300.343 0.188739
303.089 -0.292373
305.838 0.391564
308.588 0.117137
311.341 0.349994
314.097 -0.275178
316.854 -0.189077
319.614 -0.032819
322.377 0.115465
325.141 0.039193
327.908 0.031129
330.677 0.119345
333.449 0.122735
336.223 -0.032559
338.999 0.027670
341.777 0.088039
344.558 0.046848
347.341 0.013124
350.126 -0.001279
352.913 -0.022797
355.703 0.010536
358.495 -0.011559
361.289 0.034608
364.085 0.018473
366.884 0.015425
369.685 0.071618
372.488 0.097326
375.293 -0.034338
378.1 0.004067
380.91 0.063322
383.722 0.019318
386.536 0.026971
389.352 0.022548
392.171 0.013793
394.991 -0.005685
397.814 0.006892
400.639 0.031832
403.466 0.015085
406.295 0.029453
409.127 0.008992
411.961 0.024192
414.796 0.003673
417.634 0.018292
420.474 0.036572
423.316 0.019499
426.161 0.009529
429.007 0.023847
431.855 0.026360
434.706 0.021210
437.559 0.011503
440.413 0.040200
443.27 0.002086
446.129 0.026475
448.99 0.025597
451.853 0.020084
454.719 0.022462
457.586 0.020898
460.455 0.036296
463.327 0.014708
466.2 0.018582
469.076 0.009936
471.953 0.001128
474.833 0.008955
477.714 0.010800
480.598 0.036019
483.484 0.034691
486.372 0.022183
489.261 0.019237
492.153 0.013873
495.047 0.015414
497.942 0.015394
500.84 0.018711
503.74 0.008258
506.641 0.023170
509.545 0.028704
512.451 0.002751
515.358 0.029720
518.268 0.029660
521.179 0.012144
524.093 0.021818
527.008 0.020336
529.925 0.023919
532.845 0.014623
535.766 -0.005764
538.689 0.012774
541.614 0.014491
544.541 0.024025
547.47 0.022218
550.401 -0.001150
553.333 0.021396
556.268 0.021929
559.204 0.003724
562.143 0.014328
565.083 0.014331
568.025 0.015171
570.969 0.015384
573.915 0.025583
576.863 0.025510
579.812 0.020909
582.764 0.013192
585.717 0.019136
588.672 0.014939
591.629 0.022450
594.587 0.021878
597.548 0.024452
600.51 0.020648
603.475 0.025261
606.441 0.015497
609.409 0.018991
612.378 0.022467
615.35 0.037648
618.323 0.014811
621.298 0.016954
624.274 0.022714
627.253 0.013266
630.233 0.034144
633.215 0.013505
636.199 0.025564
639.185 0.001253
642.172 0.012231
645.161 0.018250
648.152 0.020587
651.144 0.035898
654.139 0.043032
657.135 0.040278
660.133 0.024181
663.132 0.031298
666.133 0.034753
669.136 0.054821
672.14 0.041028
675.147 0.024300
678.154 0.025395
681.164 0.026609
684.175 0.039492
687.188 0.020718
690.203 0.029691
693.219 0.026786
696.237 0.024943
699.257 0.041133
702.278 0.021483
705.301 0.011179
708.325 0.022627
711.351 0.002120
714.379 0.016739
717.409 0.027274
720.439 0.021173
723.472 0.004866
726.506 0.032960
729.542 0.023652
732.58 0.045759
735.619 0.014862
738.659 0.025537
741.701 0.006234
744.745 0.001466
747.79 0.037721
750.837 0.008995
753.886 0.026703
756.936 0.023322
759.987 0.023986
763.04 0.019415
766.095 0.027374
769.151 0.017943
772.209 0.011334
775.268 0.010259
778.329 0.024609
781.391 0.053090
784.455 0.002342
787.52 0.020328
790.587 0.022403
793.655 0.026711
796.725 0.042533
799.796 0.026173
802.869 -0.024724
805.943 0.025782
809.019 0.060401
812.096 0.000162
815.174 0.037041
818.254 0.039090
821.336 0.068074
824.419 0.013360
827.503 0.066228
830.589 0.027465
833.676 0.080596
836.765 0.032912
839.855 -0.009444
842.946 -0.001922
846.039 0.013484
849.133 0.171098
852.229 -0.047567
855.326 0.080841
858.424 -0.031561
861.524 0.165847
864.625 0.081640
867.728 -0.016912
870.832 0.044412
873.937 0.038001
877.044 0.003320
880.152 0.048481
883.261 0.017609
886.372 0.014708
889.484 -0.093605
892.598 0.093850
895.712 0.045046
898.828 0.052293
901.946 0.031886
905.064 0.123589
908.184 -0.033823
911.306 0.030361
914.428 -0.038638
917.552 0.063473
920.677 -0.023047
923.804 0.042022
926.931 -0.100780
930.06 -0.084521
933.191 0.078831
936.322 -0.173022
939.455 0.130869
942.589 0.299577
945.724 0.396262
948.861 0.094441
951.998 0.168378
955.137 0.203618
958.278 -0.286887
961.419 -0.256878
964.562 0.438605
967.705 0.717719
970.85 -0.004212
973.997 2.994757
977.144 0.025841
980.293 0.343958
983.442 0.050754
986.593 0.618804
989.746 1.044670
992.899 2.866287
996.053 -0.175894
999.209 0.000000
1002.37 2.599883
1005.52 0.086992
1008.68 2.691965
1011.84 0.163735
1015 -2.658011
1018.17 0.181345
1021.33 -2.914343
1023.03 2.812913