File: Auto_Polymerization/Data/UV_VIS_Spectra/MRG-061-F-3_pure_compounds_spectra_test/DMSO+MMA_spectrum_average_absorbance.txt
# Wavelength	Absorbance
197.78 -0.106905
200.433 3.008600
203.089 3.034628
205.748 0.186601
208.408 0.068265
211.072 0.421440
213.738 0.079091
216.406 2.902003
219.077 2.990339
221.75 0.914042
224.426 0.941180
227.105 2.294466
229.786 -0.049043
232.469 -0.018682
235.155 0.453407
237.843 0.188501
240.534 -3.144885
243.227 -0.176373
245.923 0.159837
248.621 0.032060
251.321 0.059703
254.024 0.554675
256.73 -0.099115
259.438 -0.095254
262.148 0.353407
264.86 2.662758
267.575 -0.444937
270.293 -2.385606
273.013 0.046524
275.735 0.000000
278.46 -0.046764
281.187 -2.614897
283.917 0.118876
286.648 2.940516
289.383 0.234083
292.119 1.554035
294.858 -0.006531
297.599 -0.407181
300.343 0.387921
303.089 -0.400220
305.838 0.330720
308.588 0.500354
311.341 0.438511
314.097 0.240048
316.854 -0.002791
319.614 -0.075750
322.377 0.273773
325.141 -0.053576
327.908 0.060772
330.677 0.143282
333.449 0.003569
336.223 0.088630
338.999 -0.027351
341.777 0.103094
344.558 0.038086
347.341 0.036794
350.126 0.018588
352.913 -0.068815
355.703 -0.027336
358.495 0.015364
361.289 0.040971
364.085 0.001704
366.884 -0.005924
369.685 0.011786
372.488 0.042386
375.293 -0.021791
378.1 -0.027017
380.91 0.029490
383.722 -0.002820
386.536 0.001200
389.352 0.002616
392.171 -0.010243
394.991 -0.021621
397.814 -0.006976
400.639 0.000403
403.466 -0.011491
406.295 0.000206
409.127 -0.012196
411.961 -0.002534
414.796 -0.026504
417.634 -0.018858
420.474 0.005787
423.316 -0.011708
426.161 -0.025736
429.007 -0.009425
431.855 -0.028081
434.706 -0.025917
437.559 -0.006191
440.413 0.009379
443.27 -0.010059
446.129 0.000665
448.99 -0.003474
451.853 -0.012300
454.719 -0.016520
457.586 -0.008426
460.455 -0.005724
463.327 0.000581
466.2 -0.020692
469.076 -0.014755
471.953 -0.030659
474.833 -0.007800
477.714 -0.022798
480.598 0.007037
483.484 0.009723
486.372 -0.038531
489.261 0.000424
492.153 -0.021253
495.047 -0.020960
497.942 -0.003121
500.84 -0.007847
503.74 -0.010047
506.641 -0.012946
509.545 -0.001701
512.451 -0.032810
515.358 0.006631
518.268 0.009163
521.179 -0.010247
524.093 -0.011690
527.008 -0.001292
529.925 -0.007510
532.845 0.001179
535.766 -0.025887
538.689 -0.008747
541.614 -0.011217
544.541 0.001247
547.47 -0.002212
550.401 -0.044875
553.333 -0.006726
556.268 -0.010363
559.204 -0.013697
562.143 -0.024696
565.083 -0.002493
568.025 -0.018451
570.969 0.000076
573.915 -0.001532
576.863 -0.001199
579.812 -0.000335
582.764 -0.027424
585.717 -0.014711
588.672 -0.016740
591.629 0.003832
594.587 -0.009157
597.548 0.001936
600.51 -0.009422
603.475 0.000527
606.441 -0.026101
609.409 -0.009253
612.378 0.001004
615.35 0.013310
618.323 -0.003881
621.298 -0.016672
624.274 -0.000548
627.253 -0.008189
630.233 -0.005784
633.215 0.001214
636.199 0.000720
639.185 -0.019360
642.172 0.001498
645.161 -0.010118
648.152 -0.002013
651.144 0.008495
654.139 0.018734
657.135 -0.007349
660.133 -0.083292
663.132 0.019170
666.133 -0.008187
669.136 0.022302
672.14 0.017019
675.147 0.014009
678.154 -0.001161
681.164 0.004151
684.175 0.003481
687.188 0.009518
690.203 -0.000161
693.219 0.005454
696.237 0.001865
699.257 -0.003875
702.278 0.020809
705.301 0.002759
708.325 -0.007593
711.351 -0.031946
714.379 -0.019004
717.409 -0.011700
720.439 0.009853
723.472 -0.011314
726.506 -0.014825
729.542 0.009495
732.58 0.007568
735.619 0.010887
738.659 -0.003665
741.701 -0.026053
744.745 -0.017278
747.79 -0.001753
750.837 -0.022313
753.886 0.023385
756.936 0.000160
759.987 0.002827
763.04 0.002511
766.095 -0.016460
769.151 0.000204
772.209 -0.015274
775.268 -0.033786
778.329 -0.008618
781.391 0.024022
784.455 -0.007007
787.52 0.008372
790.587 0.001734
793.655 0.017786
796.725 0.037663
799.796 0.015994
802.869 -0.039347
805.943 0.005626
809.019 0.027877
812.096 -0.013863
815.174 -0.025691
818.254 0.028189
821.336 0.044742
824.419 -0.010072
827.503 0.028436
830.589 -0.041404
833.676 0.042222
836.765 0.038549
839.855 0.000437
842.946 -0.042791
846.039 0.023048
849.133 0.041212
852.229 -0.061053
855.326 0.012138
858.424 -0.032730
861.524 0.105338
864.625 -0.022868
867.728 -0.044149
870.832 0.030889
873.937 0.004140
877.044 -0.014676
880.152 0.058089
883.261 -0.071138
886.372 0.012387
889.484 -0.063647
892.598 0.078012
895.712 0.032306
898.828 0.104989
901.946 -0.007619
905.064 0.020172
908.184 -0.118916
911.306 0.152913
914.428 0.014746
917.552 0.062828
920.677 -0.015799
923.804 0.204750
926.931 -0.129525
930.06 -0.008526
933.191 0.185847
936.322 -0.191120
939.455 0.222676
942.589 0.227957
945.724 0.251749
948.861 0.481386
951.998 0.184321
955.137 -0.225847
958.278 -0.018376
961.419 -0.165013
964.562 0.017325
967.705 3.152288
970.85 -0.143581
973.997 -0.231843
977.144 0.185674
980.293 0.138196
983.442 0.573234
986.593 0.475809
989.746 0.461094
992.899 2.866287
996.053 0.016868
999.209 -1.826075
1002.37 0.166914
1005.52 0.102207
1008.68 0.226582
1011.84 -0.312535
1015 -2.421604
1018.17 3.231724
1021.33 -1.944483
1023.03 1.582464