File: Auto_Polymerization/Spectra/MRG-061-F-2_spectra_while_flow/spectrum_2025-06-19_10-11-31.txt
# Wavelength (nm)	Intensity (a.u.)
197.7802	-0.000746
200.4334	0.001239
203.0892	0.000626
205.7475	-0.000915
208.4084	-0.000408
211.0718	0.000352
213.7376	-0.001168
216.4060	0.000690
219.0769	-0.000746
221.7503	-0.000978
224.4262	0.000964
227.1046	0.000099
229.7855	0.000500
232.4688	-0.000028
235.1546	0.000542
237.8429	-0.000662
240.5337	0.000479
243.2269	-0.001232
245.9225	0.000394
248.6206	0.000436
251.3212	0.001049
254.0242	-0.001147
256.7296	-0.000493
259.4375	-0.000408
262.1477	-0.000303
264.8604	0.000056
267.5755	0.000436
270.2931	0.000204
273.0130	-0.000345
275.7353	0.000373
278.4600	0.000056
281.1871	-0.000915
283.9166	-0.000915
286.6484	0.000647
289.3827	-0.000239
292.1193	-0.000091
294.8582	-0.000915
297.5995	0.001133
300.3432	0.001281
303.0892	-0.000260
305.8376	-0.000662
308.5883	-0.000239
311.3413	0.000711
314.0967	-0.001253
316.8543	-0.000662
319.6143	0.000014
322.3766	-0.000113
325.1412	-0.000324
327.9082	0.001175
330.6774	0.000183
333.4489	0.000626
336.2227	-0.000387
338.9987	-0.000640
341.7771	-0.000640
344.5577	0.000859
347.3406	0.001492
350.1257	0.001028
352.9131	0.000352
355.7027	0.000880
358.4946	-0.000450
361.2888	-0.000577
364.0851	-0.001844
366.8837	0.000246
369.6845	-0.000957
372.4876	0.000584
375.2928	-0.000915
378.1003	0.000669
380.9100	-0.000113
383.7219	-0.000366
386.5359	0.001154
389.3522	0.002822
392.1706	0.006222
394.9912	0.009811
397.8140	0.014625
400.6390	0.017201
403.4661	0.019904
406.2954	0.025330
409.1269	0.025119
411.9605	0.027800
414.7962	0.029574
417.6341	0.028180
420.4741	0.033205
423.3162	0.034747
426.1605	0.029785
429.0068	0.031031
431.8553	0.030587
434.7059	0.029511
437.5586	0.029848
440.4135	0.030355
443.2703	0.032234
446.1293	0.030883
448.9904	0.027800
451.8535	0.023535
454.7188	0.023451
457.5860	0.021044
460.4554	0.018552
463.3268	0.015385
466.2003	0.015807
469.0758	0.011711
471.9533	0.008671
474.8329	0.008608
477.7145	0.007763
480.5982	0.005905
483.4838	0.007024
486.3715	0.016019
489.2612	0.004765
492.1529	0.005145
495.0466	0.004342
497.9423	0.004913
500.8400	0.002991
503.7397	0.002125
506.6414	0.001302
509.5450	0.002738
512.4506	0.002337
515.3582	0.001408
518.2677	0.002506
521.1792	0.002759
524.0927	0.004068
527.0081	0.002759
529.9254	0.004596
532.8447	0.005884
535.7659	0.009262
538.6890	0.009347
541.6140	0.012049
544.5410	0.013907
547.4699	0.016040
550.4007	0.017201
553.3333	0.023789
556.2679	0.027103
559.2044	0.024591
562.1427	0.032762
565.0829	0.038885
568.0250	0.055692
570.9690	0.110441
573.9149	0.154823
576.8626	0.182757
579.8121	0.209508
582.7635	0.263751
585.7167	0.239322
588.6718	0.203512
591.6288	0.129085
594.5875	0.171587
597.5481	0.149798
600.5105	0.185122
603.4747	0.189112
606.4407	0.164366
609.4085	0.134553
612.3781	0.129845
615.3495	0.129866
618.3227	0.105289
621.2977	0.077376
624.2745	0.086413
627.2530	0.070409
630.2333	0.059598
633.2154	0.046507
636.1992	0.043340
639.1848	0.041630
642.1721	0.030349
645.1612	0.026241
648.1520	0.030741
651.1445	0.027197
654.1388	0.031821
657.1348	0.879466
660.1325	0.060262
663.1319	0.021449
666.1330	0.022299
669.1359	0.019524
672.1404	0.033015
675.1466	0.027209
678.1545	0.029088
681.1641	0.034472
684.1754	0.032023
687.1883	0.045494
690.2029	0.032868
693.2192	0.037386
696.2371	0.029489
699.2567	0.035718
702.2779	0.029109
705.3008	0.026681
708.3253	0.036795
711.3514	0.030988
714.3791	0.033058
717.4085	0.026259
720.4395	0.028286
723.4721	0.026808
726.5063	0.033902
729.5421	0.037281
732.5795	0.041968
735.6185	0.047943
738.6591	0.040764
741.7013	0.031115
744.7450	0.031326
747.7903	0.031390
750.8372	0.038210
753.8856	0.042496
756.9356	0.050371
759.9872	0.060569
763.0403	0.048661
766.0949	0.049696
769.1510	0.049907
772.2087	0.040997
775.2679	0.031770
778.3287	0.025752
781.3909	0.036373
784.4547	0.028835
787.5199	0.028307
790.5867	0.025520
793.6550	0.024253
796.7247	0.021572
799.7959	0.021572
802.8686	0.016230
805.9428	0.018785
809.0185	0.024063
812.0956	0.017454
815.1742	0.018003
818.2542	0.013358
821.3357	0.012619
824.4186	0.010487
827.5029	0.012936
830.5887	0.009579
833.6759	0.008988
836.7646	0.008312
839.8546	0.006475
842.9461	0.005799
846.0390	0.005377
849.1333	0.005630
852.2289	0.004976
855.3260	0.013422
858.4245	0.009009
861.5243	0.007383
864.6255	0.006285
867.7281	0.006369
870.8321	0.005103
873.9374	0.005335
877.0441	0.004913
880.1521	0.007826
883.2615	0.005124
886.3722	0.006771
889.4843	0.005187
892.5977	0.004174
895.7124	0.004385
898.8284	0.004131
901.9458	0.005060
905.0644	0.004976
908.1844	0.002970
911.3057	0.002020
914.4283	0.002801
917.5521	0.004638
920.6773	0.003012
923.8037	0.004427
926.9314	0.002442
930.0604	0.002421
933.1906	0.000964
936.3221	0.001365
939.4549	0.001999
942.5889	0.001175
945.7241	0.001429
948.8606	0.001703
951.9983	0.001935
955.1373	0.000267
958.2775	0.001049
961.4189	-0.000556
964.5615	0.001196
967.7053	-0.000134
970.8504	0.000711
973.9966	-0.000999
977.1440	0.001534
980.2926	0.000373
983.4424	0.000690
986.5934	-0.000324
989.7456	0.000436
992.8989	0.001049
996.0534	0.000436
999.2090	0.000077
1002.37	-0.001591
1005.52	0.000352
1008.68	0.000056
1011.84	0.000352
1015	0.000056
1018.17	0.000711
1021.33	-0.000894
1023.03	-0.000113