File: Auto_Polymerization/Spectra/MRG-061-F-2_spectra_while_flow/spectrum_2025-06-19_10-16-38.txt
# Wavelength (nm)	Intensity (a.u.)
197.7802	0.000980
200.4334	-0.000244
203.0892	-0.000455
205.7475	-0.000033
208.4084	0.001486
211.0718	0.001296
213.7376	0.000368
216.4060	-0.000139
219.0769	0.001781
221.7503	0.001106
224.4262	0.001592
227.1046	-0.000603
229.7855	0.000304
232.4688	-0.000561
235.1546	0.000389
237.8429	0.000178
240.5337	-0.000160
243.2269	-0.000392
245.9225	0.000705
248.6206	0.001381
251.3212	0.001212
254.0242	0.000262
256.7296	0.000811
259.4375	-0.000287
262.1477	0.001993
264.8604	0.000072
267.5755	0.001402
270.2931	0.000241
273.0130	0.000199
275.7353	0.000262
278.4600	-0.000983
281.1871	-0.000540
283.9166	-0.000667
286.6484	0.000874
289.3827	-0.000329
292.1193	0.001402
294.8582	0.001191
297.5995	0.001423
300.3432	0.001169
303.0892	-0.000160
305.8376	0.000790
308.5883	0.000368
311.3413	0.000769
314.0967	-0.001722
316.8543	0.000536
319.6143	0.000030
322.3766	0.000346
325.1412	-0.000012
327.9082	0.001275
330.6774	0.000600
333.4489	0.001824
336.2227	0.000093
338.9987	0.002035
341.7771	0.001655
344.5577	0.000157
347.3406	0.000515
350.1257	-0.000941
352.9131	0.000790
355.7027	0.001043
358.4946	0.000304
361.2888	0.000895
364.0851	-0.000329
366.8837	0.001275
369.6845	0.000642
372.4876	-0.000561
375.2928	-0.000730
378.1003	0.000663
380.9100	0.000494
383.7219	0.000325
386.5359	0.001106
389.3522	0.002900
392.1706	0.005348
394.9912	0.010603
397.8140	0.015647
400.6390	0.018770
403.4661	0.020796
406.2954	0.025924
409.1269	0.026620
411.9605	0.027612
414.7962	0.028625
417.6341	0.028646
420.4741	0.031981
423.3162	0.033796
426.1605	0.029744
429.0068	0.031010
431.8553	0.030609
434.7059	0.031749
437.5586	0.033880
440.4135	0.030398
443.2703	0.033078
446.1293	0.030588
448.9904	0.029913
451.8535	0.025312
454.7188	0.019994
457.5860	0.021112
460.4554	0.020289
463.3268	0.014845
466.2003	0.016681
469.0758	0.010392
471.9533	0.009442
474.8329	0.009970
477.7145	0.010054
480.5982	0.008556
483.4838	0.005833
486.3715	0.016976
489.2612	0.004694
492.1529	0.005728
495.0466	0.004652
497.9423	0.003428
500.8400	0.004398
503.7397	0.005854
506.6414	0.003976
509.5450	0.003934
512.4506	0.002393
515.3582	0.004040
518.2677	0.003343
521.1792	0.003217
524.0927	0.003554
527.0081	0.003850
529.9254	0.006108
532.8447	0.007627
535.7659	0.008028
538.6890	0.010075
541.6140	0.011384
544.5410	0.014127
547.4699	0.017609
550.4007	0.019086
553.3333	0.023202
556.2679	0.026346
559.2044	0.025755
562.1427	0.033817
565.0829	0.041920
568.0250	0.054477
570.9690	0.115086
573.9149	0.157631
576.8626	0.185678
579.8121	0.212479
582.7635	0.263993
585.7167	0.240927
588.6718	0.200598
591.6288	0.138849
594.5875	0.174324
597.5481	0.157821
600.5105	0.183926
603.4747	0.193950
606.4407	0.164004
609.4085	0.137773
612.3781	0.130492
615.3495	0.129859
618.3227	0.109663
621.2977	0.075222
624.2745	0.090374
627.2530	0.072120
630.2333	0.061821
633.2154	0.045255
636.1992	0.044242
639.1848	0.043588
642.1721	0.032988
645.1612	0.028308
648.1520	0.028679
651.1445	0.029776
654.1388	0.034614
657.1348	0.882185
660.1325	0.063580
663.1319	0.020802
666.1330	0.027153
669.1359	0.021007
672.1404	0.030419
675.1466	0.027380
678.1545	0.029258
681.1641	0.035167
684.1754	0.032614
687.1883	0.046373
690.2029	0.034028
693.2192	0.040380
696.2371	0.029701
699.2567	0.037003
702.2779	0.030651
705.3008	0.025734
708.3253	0.037890
711.3514	0.033099
714.3791	0.034956
717.4085	0.028288
720.4395	0.028836
723.4721	0.028161
726.5063	0.032149
729.5421	0.035442
732.5795	0.039304
735.6185	0.047829
738.6591	0.042342
741.7013	0.034809
744.7450	0.028435
747.7903	0.033458
750.8372	0.040464
753.8856	0.045044
756.9356	0.053949
759.9872	0.060513
763.0403	0.048652
766.0949	0.050003
769.1510	0.050573
772.2087	0.041013
775.2679	0.031791
778.3287	0.026536
781.3909	0.036623
784.4547	0.029174
787.5199	0.030482
790.5867	0.027359
793.6550	0.023370
796.7247	0.023434
799.7959	0.022737
802.8686	0.017483
805.9428	0.018495
809.0185	0.023497
812.0956	0.017968
815.1742	0.016765
818.2542	0.013811
821.3357	0.014612
824.4186	0.011679
827.5029	0.013874
830.5887	0.010244
833.6759	0.008514
836.7646	0.008324
839.8546	0.006298
842.9461	0.005285
846.0390	0.005200
849.1333	0.004673
852.2289	0.006635
855.3260	0.012755
858.4245	0.010919
861.5243	0.008788
864.6255	0.005496
867.7281	0.004483
870.8321	0.006720
873.9374	0.005306
877.0441	0.004504
880.1521	0.009484
883.2615	0.008492
886.3722	0.006445
889.4843	0.004251
892.5977	0.003913
895.7124	0.004905
898.8284	0.005643
901.9458	0.002626
905.0644	0.004609
908.1844	0.004905
911.3057	0.004314
914.4283	0.003723
917.5521	0.002520
920.6773	0.003449
923.8037	0.004504
926.9314	0.002773
930.0604	0.001486
933.1906	0.003343
936.3221	0.003850
939.4549	0.002710
942.5889	-0.001025
945.7241	0.002393
948.8606	0.000895
951.9983	0.001824
955.1373	0.001824
958.2775	0.001528
961.4189	0.001486
964.5615	0.002415
967.7053	-0.000350
970.8504	0.000684
973.9966	-0.000751
977.1440	0.002520
980.2926	0.000916
983.4424	0.002140
986.5934	0.000663
989.7456	0.001402
992.8989	-0.000392
996.0534	0.000389
999.2090	0.000853
1002.37	0.000642
1005.52	-0.000202
1008.68	0.000536
1011.84	0.000009
1015	0.000389
1018.17	0.000621
1021.33	0.000389
1023.03	0.000536