File: Auto_Polymerization/Spectra/MRG-061-F-2_spectra_while_flow/spectrum_2025-06-19_10-31-58.txt
# Wavelength (nm)	Intensity (a.u.)
197.7802	0.002744
200.4334	-0.000443
203.0892	0.001140
205.7475	0.001224
208.4084	0.000971
211.0718	0.001330
213.7376	0.001097
216.4060	0.000865
219.0769	0.000528
221.7503	-0.001161
224.4262	0.001119
227.1046	-0.000507
229.7855	0.000971
232.4688	-0.000317
235.1546	0.000865
237.8429	-0.000929
240.5337	-0.000443
243.2269	0.000908
245.9225	-0.000675
248.6206	-0.000253
251.3212	0.001477
254.0242	0.001330
256.7296	0.001541
259.4375	-0.000549
262.1477	0.001752
264.8604	0.001161
267.5755	-0.000211
270.2931	0.000612
273.0130	0.000485
275.7353	0.000865
278.4600	0.001435
281.1871	-0.001203
283.9166	0.000781
286.6484	0.000401
289.3827	0.001477
292.1193	-0.000781
294.8582	0.000612
297.5995	0.000675
300.3432	0.001625
303.0892	0.000549
305.8376	-0.000317
308.5883	-0.001224
311.3413	0.000865
314.0967	0.000739
316.8543	0.000232
319.6143	0.000485
322.3766	-0.000211
325.1412	-0.000338
327.9082	0.000422
330.6774	-0.000443
333.4489	0.002047
336.2227	-0.000127
338.9987	0.001921
341.7771	-0.000190
344.5577	0.000295
347.3406	0.001752
350.1257	0.000317
352.9131	-0.000570
355.7027	-0.000127
358.4946	-0.000464
361.2888	0.001984
364.0851	0.000739
366.8837	0.000950
369.6845	0.000802
372.4876	0.001013
375.2928	0.000021
378.1003	0.000528
380.9100	0.001203
383.7219	0.000401
386.5359	0.002026
389.3522	0.003841
392.1706	0.005487
394.9912	0.007978
397.8140	0.013845
400.6390	0.016990
403.4661	0.020366
406.2954	0.026234
409.1269	0.025938
411.9605	0.027078
414.7962	0.027036
417.6341	0.030011
420.4741	0.031088
423.3162	0.034211
426.1605	0.029568
429.0068	0.029821
431.8553	0.029315
434.7059	0.029357
437.5586	0.029885
440.4135	0.028872
443.2703	0.035056
446.1293	0.030265
448.9904	0.027859
451.8535	0.025600
454.7188	0.020198
457.5860	0.021590
460.4554	0.020978
463.3268	0.016166
466.2003	0.016293
469.0758	0.012157
471.9533	0.009582
474.8329	0.010447
477.7145	0.008927
480.5982	0.008695
483.4838	0.006754
486.3715	0.019100
489.2612	0.005508
492.1529	0.005107
495.0466	0.005255
497.9423	0.003778
500.8400	0.003187
503.7397	0.003039
506.6414	0.004010
509.5450	0.002406
512.4506	0.003292
515.3582	0.003736
518.2677	0.004896
521.1792	0.002744
524.0927	0.004179
527.0081	0.005002
529.9254	0.007112
532.8447	0.006627
535.7659	0.007661
538.6890	0.008949
541.6140	0.012431
544.5410	0.015829
547.4699	0.017327
550.4007	0.019353
553.3333	0.022815
556.2679	0.026023
559.2044	0.026445
562.1427	0.036047
565.0829	0.039424
568.0250	0.056456
570.9690	0.112722
573.9149	0.155186
576.8626	0.181208
579.8121	0.209784
582.7635	0.259402
585.7167	0.243130
588.6718	0.199358
591.6288	0.133067
594.5875	0.173737
597.5481	0.151724
600.5105	0.182411
603.4747	0.189270
606.4407	0.167384
609.4085	0.133827
612.3781	0.129057
615.3495	0.131780
618.3227	0.109789
621.2977	0.075303
624.2745	0.087903
627.2530	0.070934
630.2333	0.061247
633.2154	0.044954
636.1992	0.042991
639.1848	0.041704
642.1721	0.031726
645.1612	0.028839
648.1520	0.030252
651.1445	0.028917
654.1388	0.033307
657.1348	0.874157
660.1325	0.061623
663.1319	0.020963
666.1330	0.025509
669.1359	0.019480
672.1404	0.031003
675.1466	0.026044
678.1545	0.027943
681.1641	0.035689
684.1754	0.034042
687.1883	0.044257
690.2029	0.035414
693.2192	0.038095
696.2371	0.030940
699.2567	0.036406
702.2779	0.030433
705.3008	0.024292
708.3253	0.037419
711.3514	0.032523
714.3791	0.033029
717.4085	0.029526
720.4395	0.028006
723.4721	0.027226
726.5063	0.035056
729.5421	0.038010
732.5795	0.040480
735.6185	0.047507
738.6591	0.041134
741.7013	0.033831
744.7450	0.028851
747.7903	0.031932
750.8372	0.040480
753.8856	0.041725
756.9356	0.052910
759.9872	0.059622
763.0403	0.049449
766.0949	0.049365
769.1510	0.046431
772.2087	0.041661
775.2679	0.031489
778.3287	0.026677
781.3909	0.035161
784.4547	0.030961
787.5199	0.028787
790.5867	0.025938
793.6550	0.023638
796.7247	0.021084
799.7959	0.023047
802.8686	0.015850
805.9428	0.021000
809.0185	0.023173
812.0956	0.017348
815.1742	0.017306
818.2542	0.014816
821.3357	0.017918
824.4186	0.011312
827.5029	0.013634
830.5887	0.010341
833.6759	0.008759
836.7646	0.007978
839.8546	0.009645
842.9461	0.004622
846.0390	0.005867
849.1333	0.004812
852.2289	0.006648
855.3260	0.014246
858.4245	0.008906
861.5243	0.007450
864.6255	0.007323
867.7281	0.006057
870.8321	0.006374
873.9374	0.003377
877.0441	0.005023
880.1521	0.009286
883.2615	0.005297
886.3722	0.007049
889.4843	0.004516
892.5977	0.005318
895.7124	0.003609
898.8284	0.004242
901.9458	0.003778
905.0644	0.005846
908.1844	0.003419
911.3057	0.003736
914.4283	0.003482
917.5521	0.005255
920.6773	0.003356
923.8037	0.003672
926.9314	0.003187
930.0604	0.003757
933.1906	0.002828
936.3221	0.002701
939.4549	0.002195
942.5889	0.001541
945.7241	0.000232
948.8606	0.000317
951.9983	0.002490
955.1373	0.002490
958.2775	0.001604
961.4189	0.000886
964.5615	0.001625
967.7053	0.001562
970.8504	0.001013
973.9966	0.000696
977.1440	0.001562
980.2926	0.000612
983.4424	0.001076
986.5934	0.001541
989.7456	-0.000063
992.8989	-0.000148
996.0534	0.000063
999.2090	0.001140
1002.37	-0.000422
1005.52	0.001794
1008.68	0.000274
1011.84	0.002026
1015	-0.000253
1018.17	0.000021
1021.33	0.000169
1023.03	0.000528