File: Auto_Polymerization/Spectra/MRG-061-F-4_spectra_while_stopped_with_alu_foil/spectrum_2025-06-20_08-51-19.txt
# Wavelength (nm)	Intensity (a.u.)
197.7802	0.000158
200.4334	0.000685
203.0892	-0.000475
205.7475	-0.000116
208.4084	-0.001234
211.0718	-0.000791
213.7376	0.000538
216.4060	0.000875
219.0769	-0.000432
221.7503	0.000158
224.4262	0.000728
227.1046	0.001234
229.7855	0.001128
232.4688	0.001128
235.1546	-0.000264
237.8429	0.000538
240.5337	-0.000137
243.2269	0.000243
245.9225	-0.001171
248.6206	0.000390
251.3212	-0.000074
254.0242	-0.000095
256.7296	0.001529
259.4375	-0.001065
262.1477	0.001128
264.8604	0.000875
267.5755	0.000622
270.2931	0.000622
273.0130	0.000981
275.7353	-0.000221
278.4600	-0.000812
281.1871	0.000453
283.9166	-0.000622
286.6484	-0.000601
289.3827	0.000179
292.1193	0.000221
294.8582	-0.001023
297.5995	0.000664
300.3432	0.000939
303.0892	0.000622
305.8376	-0.000390
308.5883	-0.000580
311.3413	0.000939
314.0967	0.001044
316.8543	0.000411
319.6143	-0.000137
322.3766	0.001213
325.1412	0.000875
327.9082	-0.000601
330.6774	-0.000643
333.4489	0.000432
336.2227	-0.001065
338.9987	0.001339
341.7771	0.000601
344.5577	0.000011
347.3406	-0.000664
350.1257	0.000264
352.9131	0.000622
355.7027	0.001065
358.4946	0.000200
361.2888	0.001149
364.0851	0.000685
366.8837	0.001803
369.6845	-0.000137
372.4876	0.000917
375.2928	-0.000179
378.1003	0.000939
380.9100	0.000095
383.7219	-0.000390
386.5359	0.000411
389.3522	0.002541
392.1706	0.005811
394.9912	0.005832
397.8140	0.010915
400.6390	0.011885
403.4661	0.013846
406.2954	0.018128
409.1269	0.018929
411.9605	0.018550
414.7962	0.019731
417.6341	0.022789
420.4741	0.023801
423.3162	0.026670
426.1605	0.022620
429.0068	0.023063
431.8553	0.024033
434.7059	0.024286
437.5586	0.022008
440.4135	0.023633
443.2703	0.024012
446.1293	0.023126
448.9904	0.021418
451.8535	0.021207
454.7188	0.018233
457.5860	0.017664
460.4554	0.015744
463.3268	0.011020
466.2003	0.014142
469.0758	0.009966
471.9533	0.009248
474.8329	0.005958
477.7145	0.007392
480.5982	0.005937
483.4838	0.006739
486.3715	0.017558
489.2612	0.005494
492.1529	0.005030
495.0466	0.004123
497.9423	0.003385
500.8400	0.002647
503.7397	0.003216
506.6414	0.002689
509.5450	0.002077
512.4506	0.003027
515.3582	0.001782
518.2677	0.001318
521.1792	0.002584
524.0927	0.002120
527.0081	0.004756
529.9254	0.002309
532.8447	0.006296
535.7659	0.006633
538.6890	0.008257
541.6140	0.009712
544.5410	0.012665
547.4699	0.011948
550.4007	0.017136
553.3333	0.018782
556.2679	0.020954
559.2044	0.021017
562.1427	0.029411
565.0829	0.032744
568.0250	0.046769
570.9690	0.088677
573.9149	0.124975
576.8626	0.141531
579.8121	0.166419
582.7635	0.234859
585.7167	0.195967
588.6718	0.162918
591.6288	0.107617
594.5875	0.141595
597.5481	0.123520
600.5105	0.152921
603.4747	0.147753
606.4407	0.137714
609.4085	0.109705
612.3781	0.108545
615.3495	0.101480
618.3227	0.091314
621.2977	0.064148
624.2745	0.068936
627.2530	0.057526
630.2333	0.051452
633.2154	0.037616
636.1992	0.033904
639.1848	0.035760
642.1721	0.026846
645.1612	0.024013
648.1520	0.024100
651.1445	0.022759
654.1388	0.026221
657.1348	0.885060
660.1325	0.059747
663.1319	0.016143
666.1330	0.020761
669.1359	0.016672
672.1404	0.025552
675.1466	0.020722
678.1545	0.023843
681.1641	0.027703
684.1754	0.028547
687.1883	0.038565
690.2029	0.029348
693.2192	0.029812
696.2371	0.023253
699.2567	0.028926
702.2779	0.024434
705.3008	0.019203
708.3253	0.031289
711.3514	0.025573
714.3791	0.029158
717.4085	0.023232
720.4395	0.022451
723.4721	0.021481
726.5063	0.026522
729.5421	0.028505
732.5795	0.035275
735.6185	0.038460
738.6591	0.035022
741.7013	0.030571
744.7450	0.022620
747.7903	0.026121
750.8372	0.033166
753.8856	0.033524
756.9356	0.039830
759.9872	0.050207
763.0403	0.038185
766.0949	0.043732
769.1510	0.038670
772.2087	0.033714
775.2679	0.026016
778.3287	0.022388
781.3909	0.026838
784.4547	0.028378
787.5199	0.023822
790.5867	0.021713
793.6550	0.018845
796.7247	0.021692
799.7959	0.018971
802.8686	0.014226
805.9428	0.013846
809.0185	0.018191
812.0956	0.014479
815.1742	0.012792
818.2542	0.012328
821.3357	0.011737
824.4186	0.009628
827.5029	0.011231
830.5887	0.009860
833.6759	0.007730
836.7646	0.005705
839.8546	0.007181
842.9461	0.004777
846.0390	0.005009
849.1333	0.003427
852.2289	0.004018
855.3260	0.011568
858.4245	0.009206
861.5243	0.004735
864.6255	0.004693
867.7281	0.003512
870.8321	0.004292
873.9374	0.004060
877.0441	0.005283
880.1521	0.006633
883.2615	0.006021
886.3722	0.005283
889.4843	0.005325
892.5977	0.003237
895.7124	0.003828
898.8284	0.003132
901.9458	0.002879
905.0644	0.005431
908.1844	0.003596
911.3057	0.002352
914.4283	0.002900
917.5521	0.003554
920.6773	0.003364
923.8037	0.004503
926.9314	0.002352
930.0604	0.000559
933.1906	0.001930
936.3221	0.002309
939.4549	0.001213
942.5889	0.000981
945.7241	0.001213
948.8606	0.001255
951.9983	0.001149
955.1373	0.000960
958.2775	0.001171
961.4189	0.002984
964.5615	0.001002
967.7053	0.001023
970.8504	-0.000221
973.9966	0.000960
977.1440	0.001571
980.2926	0.002752
983.4424	0.000517
986.5934	0.001002
989.7456	-0.000074
992.8989	0.000243
996.0534	-0.000390
999.2090	0.000854
1002.37	0.000664
1005.52	0.000032
1008.68	0.000538
1011.84	-0.001171
1015	0.000348
1018.17	0.001360
1021.33	0.000685
1023.03	-0.000664