File: Auto_Polymerization/Spectra/MRG-061-F-4_spectra_while_stopped_with_alu_foil/spectrum_2025-06-20_08-30-50.txt
# Wavelength (nm)	Intensity (a.u.)
197.7802	0.000232
200.4334	-0.000063
203.0892	0.000907
205.7475	0.000422
208.4084	0.000443
211.0718	0.000042
213.7376	0.000654
216.4060	0.000190
219.0769	0.000401
221.7503	-0.000042
224.4262	-0.000211
227.1046	0.000949
229.7855	0.002277
232.4688	0.000822
235.1546	-0.000422
237.8429	-0.000337
240.5337	0.000611
243.2269	0.000253
245.9225	0.001118
248.6206	0.000865
251.3212	0.000380
254.0242	0.001792
256.7296	0.001434
259.4375	-0.000380
262.1477	0.000422
264.8604	-0.000337
267.5755	0.000611
270.2931	-0.000021
273.0130	0.002868
275.7353	0.001476
278.4600	-0.000211
281.1871	-0.000042
283.9166	0.001075
286.6484	0.002024
289.3827	0.001518
292.1193	-0.000274
294.8582	0.000633
297.5995	0.000506
300.3432	0.001096
303.0892	-0.000738
305.8376	0.000464
308.5883	-0.000148
311.3413	0.001139
314.0967	0.000000
316.8543	0.000654
319.6143	0.000443
322.3766	0.000211
325.1412	0.002024
327.9082	0.001181
330.6774	0.000190
333.4489	0.001371
336.2227	0.000506
338.9987	0.002130
341.7771	0.000527
344.5577	0.001096
347.3406	-0.000485
350.1257	0.000190
352.9131	0.001139
355.7027	0.001265
358.4946	0.001792
361.2888	0.000949
364.0851	0.000548
366.8837	0.001961
369.6845	0.001328
372.4876	-0.000127
375.2928	0.001096
378.1003	0.001033
380.9100	0.000822
383.7219	0.001771
386.5359	0.000654
389.3522	0.002868
392.1706	0.004428
394.9912	0.008497
397.8140	0.010690
400.6390	0.014317
403.4661	0.015983
406.2954	0.019103
409.1269	0.022224
411.9605	0.019609
414.7962	0.022435
417.6341	0.023700
420.4741	0.025935
423.3162	0.026842
426.1605	0.023679
429.0068	0.022351
431.8553	0.025071
434.7059	0.026989
437.5586	0.025640
440.4135	0.023531
443.2703	0.026146
446.1293	0.023173
448.9904	0.021697
451.8535	0.020643
454.7188	0.017353
457.5860	0.017353
460.4554	0.015456
463.3268	0.014992
466.2003	0.015603
469.0758	0.009594
471.9533	0.008772
474.8329	0.006979
477.7145	0.006600
480.5982	0.007232
483.4838	0.005672
486.3715	0.017627
489.2612	0.005545
492.1529	0.003711
495.0466	0.003838
497.9423	0.002910
500.8400	0.003353
503.7397	0.003859
506.6414	0.002804
509.5450	0.002931
512.4506	0.001856
515.3582	0.003690
518.2677	0.003669
521.1792	0.002678
524.0927	0.004112
527.0081	0.003922
529.9254	0.004175
532.8447	0.004681
535.7659	0.007865
538.6890	0.007401
541.6140	0.010838
544.5410	0.012946
547.4699	0.014191
550.4007	0.017480
553.3333	0.017606
556.2679	0.021823
559.2044	0.021781
562.1427	0.028465
565.0829	0.034095
568.0250	0.047611
570.9690	0.091153
573.9149	0.128579
576.8626	0.147704
579.8121	0.166976
582.7635	0.239088
585.7167	0.197845
588.6718	0.164066
591.6288	0.107093
594.5875	0.142538
597.5481	0.121052
600.5105	0.153797
603.4747	0.151288
606.4407	0.141020
609.4085	0.115738
612.3781	0.110889
615.3495	0.101569
618.3227	0.092544
621.2977	0.066925
624.2745	0.071796
627.2530	0.056446
630.2333	0.052545
633.2154	0.041180
636.1992	0.036119
639.1848	0.035634
642.1721	0.026106
645.1612	0.022113
648.1520	0.023096
651.1445	0.025210
654.1388	0.026140
657.1348	0.896265
660.1325	0.057409
663.1319	0.019156
666.1330	0.020409
669.1359	0.017627
672.1404	0.025260
675.1466	0.020369
678.1545	0.024206
681.1641	0.027032
684.1754	0.025577
687.1883	0.035381
690.2029	0.028444
693.2192	0.030764
696.2371	0.025260
699.2567	0.030258
702.2779	0.025408
705.3008	0.019694
708.3253	0.032851
711.3514	0.029393
714.3791	0.028929
717.4085	0.023911
720.4395	0.025218
723.4721	0.021085
726.5063	0.029246
729.5421	0.026800
732.5795	0.034812
735.6185	0.042445
738.6591	0.032957
741.7013	0.028191
744.7450	0.023827
747.7903	0.025661
750.8372	0.033420
753.8856	0.034918
756.9356	0.041201
759.9872	0.050668
763.0403	0.040716
766.0949	0.045144
769.1510	0.039725
772.2087	0.035866
775.2679	0.026336
778.3287	0.021191
781.3909	0.027369
784.4547	0.027706
787.5199	0.021718
790.5867	0.019694
793.6550	0.019125
796.7247	0.021444
799.7959	0.017606
802.8686	0.014844
805.9428	0.014380
809.0185	0.019272
812.0956	0.013790
815.1742	0.015076
818.2542	0.011428
821.3357	0.012398
824.4186	0.010564
827.5029	0.010754
830.5887	0.009868
833.6759	0.006790
836.7646	0.007717
839.8546	0.007190
842.9461	0.006052
846.0390	0.004576
849.1333	0.005714
852.2289	0.005082
855.3260	0.011702
858.4245	0.008645
861.5243	0.007570
864.6255	0.004618
867.7281	0.003606
870.8321	0.004091
873.9374	0.005250
877.0441	0.004027
880.1521	0.005967
883.2615	0.005799
886.3722	0.007169
889.4843	0.003416
892.5977	0.005271
895.7124	0.004765
898.8284	0.004301
901.9458	0.004069
905.0644	0.004238
908.1844	0.003985
911.3057	0.002615
914.4283	0.003732
917.5521	0.004681
920.6773	0.003542
923.8037	0.002615
926.9314	0.002488
930.0604	0.003100
933.1906	0.001602
936.3221	0.002383
939.4549	0.002003
942.5889	0.001708
945.7241	0.001877
948.8606	0.001096
951.9983	0.002193
955.1373	0.001244
958.2775	0.002594
961.4189	0.001307
964.5615	0.000042
967.7053	0.001877
970.8504	-0.000253
973.9966	0.002847
977.1440	0.001434
980.2926	0.001602
983.4424	0.000717
986.5934	0.001645
989.7456	-0.000105
992.8989	0.001223
996.0534	0.000380
999.2090	0.003247
1002.37	0.001054
1005.52	-0.000443
1008.68	0.001054
1011.84	0.001160
1015	-0.000401
1018.17	0.000675
1021.33	0.000865
1023.03	0.000928