File: Auto_Polymerization/Spectra/MRG-061-F-4_spectra_while_stopped_with_alu_foil/spectrum_2025-06-20_08-35-57.txt
# Wavelength (nm)	Intensity (a.u.)
197.7802	0.001302
200.4334	0.000248
203.0892	0.001787
205.7475	0.000564
208.4084	-0.000300
211.0718	0.000163
213.7376	0.001344
216.4060	0.000206
219.0769	0.000733
221.7503	-0.000511
224.4262	0.000501
227.1046	0.000248
229.7855	0.000121
232.4688	0.000923
235.1546	0.000185
237.8429	0.000227
240.5337	0.001408
243.2269	-0.000448
245.9225	-0.000258
248.6206	0.002272
251.3212	0.000733
254.0242	0.000522
256.7296	0.001703
259.4375	0.000775
262.1477	0.001513
264.8604	0.000627
267.5755	0.001155
270.2931	0.000859
273.0130	0.001028
275.7353	0.000923
278.4600	0.000416
281.1871	-0.000300
283.9166	0.001260
286.6484	-0.000153
289.3827	0.000923
292.1193	-0.000427
294.8582	0.001155
297.5995	-0.000132
300.3432	0.000901
303.0892	0.000880
305.8376	0.000374
308.5883	-0.000047
311.3413	0.001661
314.0967	0.000965
316.8543	-0.000069
319.6143	-0.000743
322.3766	0.001450
325.1412	0.000227
327.9082	0.000480
330.6774	-0.000026
333.4489	0.000522
336.2227	0.001386
338.9987	0.001302
341.7771	0.000670
344.5577	0.000100
347.3406	0.000859
350.1257	-0.000069
352.9131	0.001534
355.7027	0.000880
358.4946	0.000923
361.2888	0.001450
364.0851	-0.000617
366.8837	-0.000174
369.6845	0.001133
372.4876	0.001028
375.2928	0.001197
378.1003	0.002103
380.9100	0.001302
383.7219	0.000311
386.5359	0.001344
389.3522	0.003137
392.1706	0.005056
394.9912	0.007164
397.8140	0.009484
400.6390	0.012520
403.4661	0.014734
406.2954	0.018129
409.1269	0.020786
411.9605	0.020196
414.7962	0.020533
417.6341	0.025257
420.4741	0.024498
423.3162	0.027387
426.1605	0.024456
429.0068	0.025278
431.8553	0.025151
434.7059	0.024941
437.5586	0.024856
440.4135	0.023296
443.2703	0.026438
446.1293	0.024582
448.9904	0.023211
451.8535	0.018087
454.7188	0.018193
457.5860	0.016569
460.4554	0.016569
463.3268	0.013743
466.2003	0.013469
469.0758	0.011698
471.9533	0.007776
474.8329	0.007860
477.7145	0.006342
480.5982	0.004507
483.4838	0.006068
486.3715	0.014018
489.2612	0.004233
492.1529	0.004950
495.0466	0.003348
497.9423	0.003284
500.8400	0.002820
503.7397	0.003411
506.6414	0.003263
509.5450	0.002715
512.4506	0.003200
515.3582	0.002694
518.2677	0.003432
521.1792	0.004318
524.0927	0.004233
527.0081	0.003031
529.9254	0.004739
532.8447	0.003095
535.7659	0.007586
538.6890	0.008914
541.6140	0.011002
544.5410	0.011888
547.4699	0.014292
550.4007	0.016885
553.3333	0.018846
556.2679	0.020913
559.2044	0.021799
562.1427	0.028905
565.0829	0.033565
568.0250	0.046555
570.9690	0.094506
573.9149	0.130797
576.8626	0.154414
579.8121	0.176935
582.7635	0.218645
585.7167	0.200995
588.6718	0.164409
591.6288	0.108571
594.5875	0.144714
597.5481	0.125715
600.5105	0.153276
603.4747	0.158336
606.4407	0.136596
609.4085	0.111060
612.3781	0.108023
615.3495	0.105556
618.3227	0.086957
621.2977	0.062328
624.2745	0.073841
627.2530	0.060029
630.2333	0.050350
633.2154	0.037192
636.1992	0.037023
639.1848	0.033164
642.1721	0.026017
645.1612	0.020877
648.1520	0.025702
651.1445	0.023632
654.1388	0.026562
657.1348	0.723690
660.1325	0.038447
663.1319	0.019467
666.1330	0.020258
669.1359	0.020133
672.1404	0.028462
675.1466	0.022052
678.1545	0.024561
681.1641	0.027829
684.1754	0.028125
687.1883	0.035568
690.2029	0.030297
693.2192	0.031836
696.2371	0.025004
699.2567	0.029854
702.2779	0.023486
705.3008	0.022368
708.3253	0.030571
711.3514	0.027028
714.3791	0.029622
717.4085	0.023718
720.4395	0.023211
723.4721	0.026754
726.5063	0.026691
729.5421	0.027872
732.5795	0.031688
735.6185	0.040165
738.6591	0.035758
741.7013	0.028968
744.7450	0.025468
747.7903	0.027450
750.8372	0.034683
753.8856	0.034071
756.9356	0.043581
759.9872	0.051637
763.0403	0.040756
766.0949	0.042337
769.1510	0.040081
772.2087	0.032110
775.2679	0.025194
778.3287	0.021546
781.3909	0.028968
784.4547	0.026522
787.5199	0.024434
790.5867	0.022853
793.6550	0.019859
796.7247	0.019226
799.7959	0.017286
802.8686	0.014734
805.9428	0.018024
809.0185	0.018973
812.0956	0.013575
815.1742	0.014418
818.2542	0.011761
821.3357	0.013807
824.4186	0.009653
827.5029	0.011508
830.5887	0.009484
833.6759	0.008240
836.7646	0.005773
839.8546	0.006215
842.9461	0.005330
846.0390	0.005351
849.1333	0.004592
852.2289	0.005688
855.3260	0.011635
858.4245	0.008577
861.5243	0.005140
864.6255	0.005309
867.7281	0.004592
870.8321	0.005224
873.9374	0.003031
877.0441	0.005140
880.1521	0.007481
883.2615	0.004634
886.3722	0.005878
889.4843	0.004275
892.5977	0.005688
895.7124	0.004022
898.8284	0.003411
901.9458	0.003601
905.0644	0.004170
908.1844	0.003095
911.3057	0.005266
914.4283	0.002399
917.5521	0.003284
920.6773	0.003073
923.8037	0.002378
926.9314	0.002567
930.0604	0.002399
933.1906	0.000775
936.3221	0.002146
939.4549	0.000269
942.5889	0.001281
945.7241	0.000395
948.8606	0.001239
951.9983	0.001998
955.1373	0.000733
958.2775	0.001176
961.4189	0.000121
964.5615	0.001155
967.7053	0.001070
970.8504	0.002820
973.9966	0.000923
977.1440	0.000480
980.2926	0.000775
983.4424	0.001998
986.5934	-0.000216
989.7456	0.000163
992.8989	-0.000111
996.0534	0.002525
999.2090	0.001176
1002.37	0.001260
1005.52	0.000648
1008.68	0.001239
1011.84	0.000880
1015	-0.001060
1018.17	0.001365
1021.33	-0.000090
1023.03	0.001408