File: Auto_Polymerization/Spectra/MRG-061-F-4_spectra_while_stopped_no_alu_foil/spectrum_2025-06-20_07-53-01.txt
# Wavelength (nm)	Intensity (a.u.)
197.7802	0.000888
200.4334	-0.000167
203.0892	0.000993
205.7475	0.001521
208.4084	-0.000357
211.0718	0.000276
213.7376	0.000867
216.4060	-0.000040
219.0769	0.000255
221.7503	0.000044
224.4262	-0.000652
227.1046	0.000993
229.7855	0.001668
232.4688	-0.000040
235.1546	-0.000547
237.8429	0.000677
240.5337	0.000508
243.2269	-0.000568
245.9225	0.000951
248.6206	0.000297
251.3212	0.001204
254.0242	-0.000884
256.7296	0.000171
259.4375	0.000656
262.1477	0.000149
264.8604	0.000656
267.5755	-0.000272
270.2931	0.000466
273.0130	0.001985
275.7353	0.000339
278.4600	-0.000526
281.1871	0.000656
283.9166	-0.000610
286.6484	0.000339
289.3827	-0.000294
292.1193	-0.001032
294.8582	0.001499
297.5995	-0.000272
300.3432	0.001542
303.0892	0.000698
305.8376	0.000803
308.5883	0.000466
311.3413	0.001310
314.0967	0.000656
316.8543	0.001352
319.6143	0.000867
322.3766	0.001183
325.1412	0.000909
327.9082	0.000677
330.6774	0.000339
333.4489	0.001267
336.2227	-0.000737
338.9987	0.001373
341.7771	-0.000062
344.5577	0.001310
347.3406	-0.000631
350.1257	0.000318
352.9131	-0.000715
355.7027	0.001162
358.4946	0.001394
361.2888	0.000740
364.0851	-0.000526
366.8837	-0.000547
369.6845	-0.000336
372.4876	0.000782
375.2928	-0.000125
378.1003	0.000824
380.9100	0.000508
383.7219	-0.000083
386.5359	0.000276
389.3522	0.002702
392.1706	0.003313
394.9912	0.008566
397.8140	0.011540
400.6390	0.015232
403.4661	0.017299
406.2954	0.017742
409.1269	0.020821
411.9605	0.020421
414.7962	0.023838
417.6341	0.022741
420.4741	0.026559
423.3162	0.025778
426.1605	0.022825
429.0068	0.023437
431.8553	0.025694
434.7059	0.024576
437.5586	0.021961
440.4135	0.023163
443.2703	0.022868
446.1293	0.025125
448.9904	0.021728
451.8535	0.018796
454.7188	0.015949
457.5860	0.016750
460.4554	0.014599
463.3268	0.012510
466.2003	0.011857
469.0758	0.008840
471.9533	0.006836
474.8329	0.007785
477.7145	0.007026
480.5982	0.005929
483.4838	0.003567
486.3715	0.015464
489.2612	0.003060
492.1529	0.002681
495.0466	0.004326
497.9423	0.002364
500.8400	0.001394
503.7397	0.004558
506.6414	0.002681
509.5450	0.002090
512.4506	0.001710
515.3582	0.001605
518.2677	0.000761
521.1792	0.003714
524.0927	0.003820
527.0081	0.003588
529.9254	0.005022
532.8447	0.005528
535.7659	0.006393
538.6890	0.007975
541.6140	0.008228
544.5410	0.012616
547.4699	0.014852
550.4007	0.013966
553.3333	0.018902
556.2679	0.022889
559.2044	0.020610
562.1427	0.027951
565.0829	0.034975
568.0250	0.045691
570.9690	0.091191
573.9149	0.127514
576.8626	0.146351
579.8121	0.165673
582.7635	0.215982
585.7167	0.194487
588.6718	0.159851
591.6288	0.105113
594.5875	0.137893
597.5481	0.120722
600.5105	0.146963
603.4747	0.151751
606.4407	0.130531
609.4085	0.108024
612.3781	0.102729
615.3495	0.103235
618.3227	0.086803
621.2977	0.056913
624.2745	0.069949
627.2530	0.053559
630.2333	0.049572
633.2154	0.036178
636.1992	0.033604
639.1848	0.032676
642.1721	0.025267
645.1612	0.020577
648.1520	0.022317
651.1445	0.022902
654.1388	0.026514
657.1348	0.700396
660.1325	0.038424
663.1319	0.017693
666.1330	0.019978
669.1359	0.016350
672.1404	0.026264
675.1466	0.021454
678.1545	0.023353
681.1641	0.027529
684.1754	0.028964
687.1883	0.036051
690.2029	0.028014
693.2192	0.032360
696.2371	0.024323
699.2567	0.030968
702.2779	0.023521
705.3008	0.019619
708.3253	0.029428
711.3514	0.025525
714.3791	0.028689
717.4085	0.022699
720.4395	0.023901
723.4721	0.021560
726.5063	0.028732
729.5421	0.027930
732.5795	0.034659
735.6185	0.039764
738.6591	0.034743
741.7013	0.025800
744.7450	0.023606
747.7903	0.023521
750.8372	0.032972
753.8856	0.034469
756.9356	0.040586
759.9872	0.048138
763.0403	0.037169
766.0949	0.042126
769.1510	0.036642
772.2087	0.033857
775.2679	0.026243
778.3287	0.019282
781.3909	0.029364
784.4547	0.025040
787.5199	0.023226
790.5867	0.020948
793.6550	0.018206
796.7247	0.018902
799.7959	0.015696
802.8686	0.012405
805.9428	0.014831
809.0185	0.017257
812.0956	0.015379
815.1742	0.011751
818.2542	0.012278
821.3357	0.014535
824.4186	0.009473
827.5029	0.011287
830.5887	0.008186
833.6759	0.007300
836.7646	0.006520
839.8546	0.005507
842.9461	0.005718
846.0390	0.004305
849.1333	0.004874
852.2289	0.005360
855.3260	0.011097
858.4245	0.008650
861.5243	0.004621
864.6255	0.004579
867.7281	0.004263
870.8321	0.004811
873.9374	0.003651
877.0441	0.003335
880.1521	0.006203
883.2615	0.005360
886.3722	0.005676
889.4843	0.005106
892.5977	0.003799
895.7124	0.004516
898.8284	0.003377
901.9458	0.005528
905.0644	0.002533
908.1844	0.004094
911.3057	0.000993
914.4283	0.001415
917.5521	0.002512
920.6773	0.003672
923.8037	0.001774
926.9314	0.001879
930.0604	0.003883
933.1906	0.000972
936.3221	0.001626
939.4549	0.000613
942.5889	0.001563
945.7241	0.000824
948.8606	0.000234
951.9983	0.000403
955.1373	0.000740
958.2775	0.001183
961.4189	0.000550
964.5615	0.001668
967.7053	0.000930
970.8504	0.001331
973.9966	0.000909
977.1440	0.001014
980.2926	-0.000842
983.4424	0.000255
986.5934	0.000128
989.7456	0.001689
992.8989	0.000930
996.0534	0.001584
999.2090	0.000677
1002.37	-0.000441
1005.52	0.001352
1008.68	-0.002108
1011.84	0.000086
1015	-0.001412
1018.17	0.000086
1021.33	0.000424
1023.03	0.000318