File: Auto_Polymerization/Spectra/MRG-061-F-4_spectra_while_stopped_no_alu_foil/spectrum_2025-06-20_07-58-09.txt
# Wavelength (nm)	Intensity (a.u.)
197.7802	0.000933
200.4334	0.000680
203.0892	0.001608
205.7475	-0.000206
208.4084	0.000722
211.0718	0.000279
213.7376	0.000322
216.4060	0.001017
219.0769	0.001903
221.7503	0.001249
224.4262	0.001291
227.1046	0.000385
229.7855	0.000427
232.4688	-0.000269
235.1546	0.000891
237.8429	-0.000627
240.5337	0.000174
243.2269	-0.000501
245.9225	0.001924
248.6206	0.000448
251.3212	0.001038
254.0242	0.002472
256.7296	-0.000438
259.4375	0.000722
262.1477	0.000195
264.8604	0.000047
267.5755	0.000617
270.2931	-0.000037
273.0130	0.000785
275.7353	0.000153
278.4600	0.000785
281.1871	-0.000121
283.9166	-0.000606
286.6484	0.001207
289.3827	0.001481
292.1193	0.001692
294.8582	0.002367
297.5995	0.000743
300.3432	0.000870
303.0892	0.000511
305.8376	0.001144
308.5883	0.000680
311.3413	0.000364
314.0967	0.000026
316.8543	0.000532
319.6143	0.000891
322.3766	-0.000079
325.1412	-0.000501
327.9082	0.001207
330.6774	0.000364
333.4489	0.000870
336.2227	0.000195
338.9987	0.001355
341.7771	0.001081
344.5577	0.000300
347.3406	0.001291
350.1257	0.001123
352.9131	0.001270
355.7027	0.000111
358.4946	0.001713
361.2888	0.001102
364.0851	0.000237
366.8837	0.000954
369.6845	0.002451
372.4876	0.001439
375.2928	0.001587
378.1003	0.001123
380.9100	0.000807
383.7219	0.000258
386.5359	0.000448
389.3522	0.002472
392.1706	0.004518
394.9912	0.008081
397.8140	0.011159
400.6390	0.014596
403.4661	0.016325
406.2954	0.019994
409.1269	0.021154
411.9605	0.022082
414.7962	0.022039
417.6341	0.024823
420.4741	0.025308
423.3162	0.027606
426.1605	0.025835
429.0068	0.025097
431.8553	0.025160
434.7059	0.025097
437.5586	0.023305
440.4135	0.025666
443.2703	0.026383
446.1293	0.022925
448.9904	0.021301
451.8535	0.020458
454.7188	0.017907
457.5860	0.018413
460.4554	0.016810
463.3268	0.012193
466.2003	0.014849
469.0758	0.009979
471.9533	0.008819
474.8329	0.008461
477.7145	0.008271
480.5982	0.006985
483.4838	0.006500
486.3715	0.016937
489.2612	0.005804
492.1529	0.004792
495.0466	0.004644
497.9423	0.002683
500.8400	0.003758
503.7397	0.003442
506.6414	0.003780
509.5450	0.003084
512.4506	0.003484
515.3582	0.002599
518.2677	0.004370
521.1792	0.002746
524.0927	0.003548
527.0081	0.003379
529.9254	0.004834
532.8447	0.005888
535.7659	0.008186
538.6890	0.008903
541.6140	0.009515
544.5410	0.011623
547.4699	0.014069
550.4007	0.016705
553.3333	0.019256
556.2679	0.021533
559.2044	0.021786
562.1427	0.030706
565.0829	0.034227
568.0250	0.047743
570.9690	0.088163
573.9149	0.121562
576.8626	0.139801
579.8121	0.167507
582.7635	0.239514
585.7167	0.198018
588.6718	0.165673
591.6288	0.107730
594.5875	0.143744
597.5481	0.122279
600.5105	0.149986
603.4747	0.148383
606.4407	0.138431
609.4085	0.110598
612.3781	0.109734
615.3495	0.102333
618.3227	0.090672
621.2977	0.065918
624.2745	0.071400
627.2530	0.056683
630.2333	0.049703
633.2154	0.038549
636.1992	0.035450
639.1848	0.034902
642.1721	0.027493
645.1612	0.022544
648.1520	0.023035
651.1445	0.023896
654.1388	0.028339
657.1348	0.890931
660.1325	0.057414
663.1319	0.019014
666.1330	0.019806
669.1359	0.016262
672.1404	0.025666
675.1466	0.023431
678.1545	0.024338
681.1641	0.027543
684.1754	0.027437
687.1883	0.036483
690.2029	0.031043
693.2192	0.030895
696.2371	0.025139
699.2567	0.031422
702.2779	0.023642
705.3008	0.020184
708.3253	0.030663
711.3514	0.027796
714.3791	0.029356
717.4085	0.022651
720.4395	0.024127
723.4721	0.021618
726.5063	0.027754
729.5421	0.027606
732.5795	0.035260
735.6185	0.039055
738.6591	0.032413
741.7013	0.028028
744.7450	0.022883
747.7903	0.025835
750.8372	0.034100
753.8856	0.033868
756.9356	0.040363
759.9872	0.049640
763.0403	0.040173
766.0949	0.043041
769.1510	0.038992
772.2087	0.036757
775.2679	0.026763
778.3287	0.020521
781.3909	0.029040
784.4547	0.027142
787.5199	0.023136
790.5867	0.023136
793.6550	0.015883
796.7247	0.020606
799.7959	0.018371
802.8686	0.014660
805.9428	0.014575
809.0185	0.019256
812.0956	0.014006
815.1742	0.016157
818.2542	0.012256
821.3357	0.013036
824.4186	0.008039
827.5029	0.010253
830.5887	0.010379
833.6759	0.007259
836.7646	0.007849
839.8546	0.006183
842.9461	0.005509
846.0390	0.004897
849.1333	0.005340
852.2289	0.005045
855.3260	0.011982
858.4245	0.008587
861.5243	0.006605
864.6255	0.005909
867.7281	0.005509
870.8321	0.004665
873.9374	0.004265
877.0441	0.004433
880.1521	0.006732
883.2615	0.005614
886.3722	0.004454
889.4843	0.004433
892.5977	0.004707
895.7124	0.003969
898.8284	0.004011
901.9458	0.004370
905.0644	0.004159
908.1844	0.003505
911.3057	0.001566
914.4283	0.005066
917.5521	0.004834
920.6773	0.003147
923.8037	0.002114
926.9314	0.002578
930.0604	0.001734
933.1906	0.003189
936.3221	0.002831
939.4549	0.002704
942.5889	0.001776
945.7241	0.001270
948.8606	0.000743
951.9983	0.001608
955.1373	-0.000016
958.2775	0.001165
961.4189	0.000996
964.5615	0.001439
967.7053	0.001481
970.8504	0.001924
973.9966	0.001776
977.1440	0.001355
980.2926	0.002578
983.4424	0.000322
986.5934	0.000870
989.7456	0.001334
992.8989	-0.000037
996.0534	0.001671
999.2090	0.001397
1002.37	0.001165
1005.52	0.000596
1008.68	0.001523
1011.84	0.000996
1015	0.001060
1018.17	0.001186
1021.33	0.000026
1023.03	0.000427