File: Auto_Polymerization/Spectra/MRG-061-F-4_spectra_while_stopped_no_alu_foil/spectrum_2025-06-20_08-13-29.txt
# Wavelength (nm)	Intensity (a.u.)
197.7802	0.000002
200.4334	0.000128
203.0892	0.000719
205.7475	-0.001348
208.4084	0.000550
211.0718	0.000656
213.7376	0.000846
216.4060	0.001183
219.0769	-0.000209
221.7503	-0.000378
224.4262	0.000951
227.1046	0.000044
229.7855	0.002385
232.4688	-0.000715
235.1546	0.000824
237.8429	-0.000969
240.5337	0.001521
243.2269	0.000171
245.9225	0.001056
248.6206	-0.001201
251.3212	-0.000420
254.0242	-0.001032
256.7296	-0.000737
259.4375	-0.000758
262.1477	-0.000842
264.8604	0.000107
267.5755	0.000234
270.2931	0.000065
273.0130	-0.000779
275.7353	0.000192
278.4600	0.000972
281.1871	-0.000378
283.9166	0.000255
286.6484	-0.000800
289.3827	0.001141
292.1193	-0.000652
294.8582	0.000888
297.5995	0.000107
300.3432	-0.000251
303.0892	0.000867
305.8376	0.000023
308.5883	0.001056
311.3413	0.000761
314.0967	0.001225
316.8543	-0.000104
319.6143	0.000677
322.3766	0.001731
325.1412	0.000487
327.9082	0.000065
330.6774	0.000403
333.4489	0.000360
336.2227	-0.000294
338.9987	0.002132
341.7771	-0.000209
344.5577	-0.000505
347.3406	0.000318
350.1257	0.000234
352.9131	0.000508
355.7027	0.001921
358.4946	-0.000399
361.2888	0.000044
364.0851	0.000592
366.8837	0.002153
369.6845	0.001858
372.4876	-0.001222
375.2928	-0.001158
378.1003	-0.000230
380.9100	0.000149
383.7219	-0.000294
386.5359	0.001246
389.3522	0.002196
392.1706	0.004178
394.9912	0.007954
397.8140	0.011013
400.6390	0.013945
403.4661	0.014831
406.2954	0.019324
409.1269	0.020273
411.9605	0.019029
414.7962	0.021033
417.6341	0.022467
420.4741	0.026285
423.3162	0.025779
426.1605	0.022931
429.0068	0.021370
431.8553	0.022952
434.7059	0.024281
437.5586	0.023269
440.4135	0.021413
443.2703	0.025399
446.1293	0.022404
448.9904	0.021666
451.8535	0.021075
454.7188	0.017573
457.5860	0.015801
460.4554	0.016160
463.3268	0.015274
466.2003	0.013144
469.0758	0.010549
471.9533	0.007786
474.8329	0.007153
477.7145	0.004685
480.5982	0.007743
483.4838	0.005697
486.3715	0.015169
489.2612	0.006372
492.1529	0.002385
495.0466	0.004432
497.9423	0.003799
500.8400	0.002807
503.7397	0.002153
506.6414	0.002153
509.5450	0.002048
512.4506	0.001879
515.3582	0.001584
518.2677	0.002301
521.1792	0.001563
524.0927	0.003398
527.0081	0.004094
529.9254	0.005697
532.8447	0.002533
535.7659	0.006119
538.6890	0.007300
541.6140	0.010739
544.5410	0.012658
547.4699	0.014557
550.4007	0.014451
553.3333	0.018586
556.2679	0.021623
559.2044	0.020759
562.1427	0.027720
565.0829	0.034048
568.0250	0.046958
570.9690	0.092880
573.9149	0.128530
576.8626	0.148654
579.8121	0.171878
582.7635	0.211156
585.7167	0.195378
588.6718	0.165170
591.6288	0.107520
594.5875	0.141207
597.5481	0.123319
600.5105	0.147261
603.4747	0.154708
606.4407	0.134288
609.4085	0.106444
612.3781	0.105832
615.3495	0.104756
618.3227	0.088408
621.2977	0.057547
624.2745	0.072630
627.2530	0.056408
630.2333	0.048835
633.2154	0.037065
636.1992	0.036474
639.1848	0.032740
642.1721	0.024885
645.1612	0.023043
648.1520	0.024007
651.1445	0.022370
654.1388	0.026536
657.1348	0.711485
660.1325	0.038085
663.1319	0.017104
666.1330	0.017524
669.1359	0.015654
672.1404	0.027129
675.1466	0.021961
678.1545	0.023670
681.1641	0.027656
684.1754	0.027129
687.1883	0.032382
690.2029	0.030357
693.2192	0.030314
696.2371	0.024028
699.2567	0.030146
702.2779	0.023965
705.3008	0.019198
708.3253	0.031010
711.3514	0.025779
714.3791	0.029386
717.4085	0.023459
720.4395	0.023416
723.4721	0.022130
726.5063	0.026623
729.5421	0.031432
732.5795	0.034027
735.6185	0.040355
738.6591	0.031685
741.7013	0.028015
744.7450	0.025505
747.7903	0.023838
750.8372	0.031580
753.8856	0.035525
756.9356	0.041115
759.9872	0.047591
763.0403	0.040397
766.0949	0.041642
769.1510	0.041811
772.2087	0.034702
775.2679	0.023332
778.3287	0.020569
781.3909	0.028985
784.4547	0.024113
787.5199	0.024999
790.5867	0.020273
793.6550	0.019809
796.7247	0.017721
799.7959	0.017679
802.8686	0.013101
805.9428	0.015316
809.0185	0.018607
812.0956	0.012911
815.1742	0.014536
818.2542	0.010507
821.3357	0.013734
824.4186	0.010401
827.5029	0.011878
830.5887	0.006646
833.6759	0.007828
836.7646	0.008123
839.8546	0.005845
842.9461	0.004157
846.0390	0.004178
849.1333	0.003503
852.2289	0.004896
855.3260	0.011203
858.4245	0.009030
861.5243	0.005085
864.6255	0.005254
867.7281	0.002765
870.8321	0.004643
873.9374	0.003546
877.0441	0.003967
880.1521	0.006562
883.2615	0.005001
886.3722	0.006225
889.4843	0.004727
892.5977	0.002849
895.7124	0.003672
898.8284	0.004347
901.9458	0.002913
905.0644	0.005212
908.1844	0.002090
911.3057	0.002512
914.4283	0.004010
917.5521	0.002111
920.6773	0.003672
923.8037	0.001879
926.9314	0.000846
930.0604	0.003187
933.1906	0.001478
936.3221	0.001204
939.4549	0.001521
942.5889	0.000613
945.7241	0.000550
948.8606	-0.000083
951.9983	0.001457
955.1373	-0.000715
958.2775	0.000234
961.4189	-0.000441
964.5615	0.001457
967.7053	0.000487
970.8504	0.001352
973.9966	0.000171
977.1440	-0.000272
980.2926	0.001204
983.4424	0.000571
986.5934	-0.000294
989.7456	0.001710
992.8989	-0.000167
996.0534	0.000571
999.2090	0.000403
1002.37	-0.000062
1005.52	0.001141
1008.68	0.000445
1011.84	-0.000399
1015	0.001056
1018.17	-0.000104
1021.33	0.000529
1023.03	-0.000125