File: Auto_Polymerization/Spectra/MRG-061-F-3_pure_compounds_spectra_test/DMSO+MMA_spectrum_2025-06-19_14-46-53.txt
# Wavelength (nm)	Intensity (a.u.)
197.7802	0.000872
200.4334	-0.000373
203.0892	-0.001365
205.7475	0.000429
208.4084	0.002075
211.0718	-0.000162
213.7376	0.000007
216.4060	-0.000183
219.0769	-0.000246
221.7503	-0.001386
224.4262	0.000598
227.1046	-0.000943
229.7855	0.000514
232.4688	-0.000563
235.1546	0.000450
237.8429	0.001843
240.5337	0.000661
243.2269	0.000535
245.9225	0.000176
248.6206	-0.000120
251.3212	0.000155
254.0242	0.000134
256.7296	0.001252
259.4375	0.001062
262.1477	0.000134
264.8604	-0.001280
267.5755	0.001885
270.2931	0.000809
273.0130	0.000049
275.7353	-0.000098
278.4600	0.000197
281.1871	-0.000478
283.9166	-0.000563
286.6484	-0.000267
289.3827	0.000915
292.1193	-0.000647
294.8582	0.001780
297.5995	-0.000436
300.3432	0.001210
303.0892	-0.000014
305.8376	0.000915
308.5883	0.001611
311.3413	0.000830
314.0967	0.000134
316.8543	0.001907
319.6143	0.001843
322.3766	0.000872
325.1412	0.001674
327.9082	0.001885
330.6774	0.003553
333.4489	0.005642
336.2227	0.003236
338.9987	0.006318
341.7771	0.005051
344.5577	0.006402
347.3406	0.007711
350.1257	0.008344
352.9131	0.009610
355.7027	0.011003
358.4946	0.008048
361.2888	0.008428
364.0851	0.010476
366.8837	0.011636
369.6845	0.012966
372.4876	0.013240
375.2928	0.015077
378.1003	0.019445
380.9100	0.020248
383.7219	0.022844
386.5359	0.023434
389.3522	0.024511
392.1706	0.027993
394.9912	0.031434
397.8140	0.034663
400.6390	0.034895
403.4661	0.035465
406.2954	0.035929
409.1269	0.036288
411.9605	0.032827
414.7962	0.037554
417.6341	0.036752
420.4741	0.037850
423.3162	0.043696
426.1605	0.040256
429.0068	0.041881
431.8553	0.044329
434.7059	0.044371
437.5586	0.044772
440.4135	0.043464
443.2703	0.050893
446.1293	0.053806
448.9904	0.051547
451.8535	0.049880
454.7188	0.046693
457.5860	0.049732
460.4554	0.054650
463.3268	0.048360
466.2003	0.058449
469.0758	0.047326
471.9533	0.045574
474.8329	0.046271
477.7145	0.046271
480.5982	0.055325
483.4838	0.052961
486.3715	0.202517
489.2612	0.054017
492.1529	0.050640
495.0466	0.056465
497.9423	0.050323
500.8400	0.053426
503.7397	0.057837
506.6414	0.055874
509.5450	0.047727
512.4506	0.047981
515.3582	0.043021
518.2677	0.041501
521.1792	0.041142
524.0927	0.039074
527.0081	0.036837
529.9254	0.041797
532.8447	0.038652
535.7659	0.046545
538.6890	0.043992
541.6140	0.048487
544.5410	0.051653
547.4699	0.050577
550.4007	0.052286
553.3333	0.053932
556.2679	0.057267
559.2044	0.046820
562.1427	0.061362
565.0829	0.061277
568.0250	0.082847
570.9690	0.152138
573.9149	0.200765
576.8626	0.218642
579.8121	0.247789
582.7635	0.343420
585.7167	0.281854
588.6718	0.229659
591.6288	0.145046
594.5875	0.189411
597.5481	0.161867
600.5105	0.199795
603.4747	0.198486
606.4407	0.183015
609.4085	0.144941
612.3781	0.140382
615.3495	0.127317
618.3227	0.116954
621.2977	0.083649
624.2745	0.089095
627.2530	0.071619
630.2333	0.063367
633.2154	0.046187
636.1992	0.043548
639.1848	0.043591
642.1721	0.033607
645.1612	0.027771
648.1520	0.028987
651.1445	0.029671
654.1388	0.031844
657.1348	1.000000
660.1325	0.089037
663.1319	0.021602
666.1330	0.026356
669.1359	0.021788
672.1404	0.030589
675.1466	0.025819
678.1545	0.029175
681.1641	0.033629
684.1754	0.033861
687.1883	0.044857
690.2029	0.034578
693.2192	0.039032
696.2371	0.030695
699.2567	0.037322
702.2779	0.028964
705.3008	0.025250
708.3253	0.038694
711.3514	0.032552
714.3791	0.034515
717.4085	0.028795
720.4395	0.029154
723.4721	0.027930
726.5063	0.033523
729.5421	0.033333
732.5795	0.041607
735.6185	0.046292
738.6591	0.041818
741.7013	0.035000
744.7450	0.029787
747.7903	0.032426
750.8372	0.042113
753.8856	0.039728
756.9356	0.051083
759.9872	0.059420
763.0403	0.048234
766.0949	0.055980
769.1510	0.050323
772.2087	0.043802
775.2679	0.030906
778.3287	0.026643
781.3909	0.033185
784.4547	0.033629
787.5199	0.028880
790.5867	0.026030
793.6550	0.022084
796.7247	0.023033
799.7959	0.022084
802.8686	0.018327
805.9428	0.018791
809.0185	0.023582
812.0956	0.017314
815.1742	0.017968
818.2542	0.013979
821.3357	0.015646
824.4186	0.010813
827.5029	0.013979
830.5887	0.013198
833.6759	0.009758
836.7646	0.007795
839.8546	0.006212
842.9461	0.006951
846.0390	0.005600
849.1333	0.004882
852.2289	0.006001
855.3260	0.013810
858.4245	0.010497
861.5243	0.006951
864.6255	0.007879
867.7281	0.005220
870.8321	0.005262
873.9374	0.006191
877.0441	0.006064
880.1521	0.007246
883.2615	0.007289
886.3722	0.006487
889.4843	0.006423
892.5977	0.005706
895.7124	0.004840
898.8284	0.003827
901.9458	0.005663
905.0644	0.005896
908.1844	0.005980
911.3057	0.002814
914.4283	0.004165
917.5521	0.002877
920.6773	0.003194
923.8037	0.001506
926.9314	0.002856
930.0604	0.002476
933.1906	0.001717
936.3221	0.001421
939.4549	0.001991
942.5889	0.001400
945.7241	0.002561
948.8606	0.000704
951.9983	0.001147
955.1373	0.002181
958.2775	0.000492
961.4189	-0.000098
964.5615	0.001189
967.7053	0.000408
970.8504	0.000324
973.9966	0.002308
977.1440	0.001126
980.2926	0.000113
983.4424	-0.000183
986.5934	0.000492
989.7456	-0.000077
992.8989	-0.000837
996.0534	0.000619
999.2090	-0.000098
1002.37	0.000830
1005.52	0.000492
1008.68	-0.000014
1011.84	0.002434
1015	0.000134
1018.17	-0.000098
1021.33	0.000514
1023.03	-0.001027