File: Auto_Polymerization/Spectra/MRG-061-F-3_pure_compounds_spectra_test/pure_DMSO_spectrum_2025-06-19_14-36-58.txt
# Wavelength (nm)	Intensity (a.u.)
197.7802	0.000665
200.4334	0.001593
203.0892	0.000981
205.7475	-0.000011
208.4084	0.000559
211.0718	0.000749
213.7376	0.001677
216.4060	-0.000622
219.0769	0.001572
221.7503	0.002416
224.4262	0.000053
227.1046	-0.000348
229.7855	-0.000411
232.4688	-0.000897
235.1546	0.001614
237.8429	-0.001044
240.5337	0.000749
243.2269	0.000749
245.9225	0.000222
248.6206	-0.000728
251.3212	0.000390
254.0242	0.000496
256.7296	0.000833
259.4375	0.000243
262.1477	-0.000074
264.8604	0.000496
267.5755	0.000285
270.2931	0.000011
273.0130	0.000454
275.7353	-0.000200
278.4600	0.000517
281.1871	-0.000644
283.9166	0.000517
286.6484	0.001340
289.3827	0.000116
292.1193	0.000791
294.8582	0.000053
297.5995	-0.000053
300.3432	0.002184
303.0892	-0.000644
305.8376	0.001698
308.5883	0.001361
311.3413	0.002521
314.0967	0.001066
316.8543	0.001698
319.6143	0.001720
322.3766	0.002479
325.1412	0.001698
327.9082	0.001804
330.6774	0.003154
333.4489	0.004399
336.2227	0.004399
338.9987	0.006425
341.7771	0.006783
344.5577	0.007100
347.3406	0.007395
350.1257	0.008450
352.9131	0.007480
355.7027	0.009041
358.4946	0.008935
361.2888	0.009906
364.0851	0.010729
366.8837	0.012775
369.6845	0.013767
372.4876	0.014738
375.2928	0.015750
378.1003	0.018325
380.9100	0.022101
383.7219	0.023051
386.5359	0.023620
389.3522	0.024274
392.1706	0.028347
394.9912	0.027925
397.8140	0.033516
400.6390	0.034233
403.4661	0.032587
406.2954	0.035731
409.1269	0.034465
411.9605	0.033199
414.7962	0.034887
417.6341	0.033431
420.4741	0.038833
423.3162	0.042251
426.1605	0.037271
429.0068	0.038812
431.8553	0.039761
434.7059	0.038643
437.5586	0.042082
440.4135	0.045479
443.2703	0.050775
446.1293	0.051788
448.9904	0.052568
451.8535	0.048981
454.7188	0.044741
457.5860	0.047990
460.4554	0.052294
463.3268	0.048876
466.2003	0.054130
469.0758	0.042504
471.9533	0.039930
474.8329	0.045669
477.7145	0.043918
480.5982	0.054193
483.4838	0.054172
486.3715	0.168360
489.2612	0.051366
492.1529	0.050184
495.0466	0.050353
497.9423	0.050226
500.8400	0.048644
503.7397	0.054889
506.6414	0.052526
509.5450	0.048348
512.4506	0.044403
515.3582	0.042399
518.2677	0.040901
521.1792	0.039466
524.0927	0.038559
527.0081	0.038179
529.9254	0.039803
532.8447	0.039972
535.7659	0.042377
538.6890	0.044867
541.6140	0.045226
544.5410	0.050079
547.4699	0.049551
550.4007	0.044804
553.3333	0.052526
556.2679	0.052273
559.2044	0.046049
562.1427	0.054425
565.0829	0.061957
568.0250	0.079048
570.9690	0.153358
573.9149	0.201317
576.8626	0.226593
579.8121	0.248663
582.7635	0.303141
585.7167	0.268264
588.6718	0.216677
591.6288	0.146607
594.5875	0.182686
597.5481	0.162452
600.5105	0.195135
603.4747	0.199861
606.4407	0.164731
609.4085	0.138716
612.3781	0.136142
615.3495	0.135677
618.3227	0.109599
621.2977	0.077824
624.2745	0.087255
627.2530	0.071114
630.2333	0.062548
633.2154	0.045838
636.1992	0.043158
639.1848	0.040732
642.1721	0.031472
645.1612	0.026376
648.1520	0.030474
651.1445	0.029026
654.1388	0.035653
657.1348	0.915123
660.1325	0.055462
663.1319	0.022335
666.1330	0.024526
669.1359	0.022354
672.1404	0.035183
675.1466	0.026194
678.1545	0.030140
681.1641	0.034782
684.1754	0.033664
687.1883	0.044952
690.2029	0.035858
693.2192	0.041301
696.2371	0.029718
699.2567	0.035541
702.2779	0.031533
705.3008	0.023726
708.3253	0.038791
711.3514	0.030478
714.3791	0.033115
717.4085	0.027503
720.4395	0.028684
723.4721	0.026194
726.5063	0.033917
729.5421	0.036892
732.5795	0.043411
735.6185	0.049003
738.6591	0.040943
741.7013	0.032904
744.7450	0.029423
747.7903	0.031448
750.8372	0.037799
753.8856	0.042356
756.9356	0.051471
759.9872	0.062358
763.0403	0.047990
766.0949	0.049952
769.1510	0.047547
772.2087	0.040457
775.2679	0.028790
778.3287	0.025941
781.3909	0.035879
784.4547	0.031111
787.5199	0.030034
790.5867	0.025224
793.6550	0.024760
796.7247	0.024127
799.7959	0.022713
802.8686	0.015518
805.9428	0.019717
809.0185	0.024823
812.0956	0.016426
815.1742	0.016088
818.2542	0.015476
821.3357	0.018367
824.4186	0.011383
827.5029	0.014674
830.5887	0.009737
833.6759	0.010898
836.7646	0.008366
839.8546	0.007100
842.9461	0.004547
846.0390	0.005792
849.1333	0.004104
852.2289	0.004990
855.3260	0.015117
858.4245	0.008788
861.5243	0.007838
864.6255	0.006783
867.7281	0.005201
870.8321	0.005707
873.9374	0.004990
877.0441	0.004484
880.1521	0.009336
883.2615	0.005665
886.3722	0.006530
889.4843	0.003555
892.5977	0.005644
895.7124	0.003450
898.8284	0.004652
901.9458	0.003661
905.0644	0.005243
908.1844	0.002796
911.3057	0.003787
914.4283	0.003640
917.5521	0.005117
920.6773	0.002669
923.8037	0.003661
926.9314	0.002142
930.0604	0.002627
933.1906	0.002817
936.3221	0.002247
939.4549	0.002732
942.5889	0.001804
945.7241	0.002922
948.8606	0.000411
951.9983	0.001783
955.1373	0.000770
958.2775	-0.000222
961.4189	0.000137
964.5615	0.001066
967.7053	0.000538
970.8504	0.000749
973.9966	0.000137
977.1440	0.001487
980.2926	0.000496
983.4424	-0.000116
986.5934	-0.000074
989.7456	-0.000264
992.8989	0.001129
996.0534	0.000348
999.2090	-0.000686
1002.37	-0.000137
1005.52	0.001846
1008.68	0.000137
1011.84	0.000770
1015	-0.000770
1018.17	0.001783
1021.33	-0.000454
1023.03	-0.000222