File: Auto_Polymerization/Data/UV_VIS_Spectra/MRG-061-F_old spectra (lamp off or wrong integration time)/spectrum_2025-06-19_09-09-58.txt
# Wavelength (nm)	Intensity (a.u.)
197.7802	0.001570
200.4334	0.001359
203.0892	-0.000185
205.7475	0.000280
208.4084	0.002606
211.0718	0.000576
213.7376	0.000132
216.4060	-0.000502
219.0769	0.001105
221.7503	0.000238
224.4262	-0.000481
227.1046	-0.000819
229.7855	-0.000164
232.4688	-0.000841
235.1546	0.000851
237.8429	-0.000100
240.5337	-0.000883
243.2269	0.001168
245.9225	-0.000777
248.6206	0.001211
251.3212	0.001887
254.0242	-0.000819
256.7296	0.001147
259.4375	0.000111
262.1477	0.001612
264.8604	-0.000418
267.5755	0.001295
270.2931	-0.000544
273.0130	-0.001285
275.7353	0.000280
278.4600	-0.001073
281.1871	0.000196
283.9166	-0.000841
286.6484	-0.001306
289.3827	0.002035
292.1193	0.000344
294.8582	-0.000143
297.5995	0.001507
300.3432	0.002056
303.0892	0.000449
305.8376	0.000153
308.5883	0.000322
311.3413	0.001697
314.0967	-0.000185
316.8543	-0.000883
319.6143	0.000661
322.3766	0.001359
325.1412	0.000322
327.9082	0.002796
330.6774	-0.000925
333.4489	-0.000100
336.2227	0.000174
338.9987	-0.000756
341.7771	0.000217
344.5577	0.000153
347.3406	-0.001602
350.1257	0.000830
352.9131	-0.000058
355.7027	0.000449
358.4946	0.000407
361.2888	0.000745
364.0851	0.001824
366.8837	0.000111
369.6845	0.000217
372.4876	0.000238
375.2928	0.000597
378.1003	0.000470
380.9100	0.001380
383.7219	0.000767
386.5359	-0.000143
389.3522	0.000069
392.1706	-0.000777
394.9912	0.000386
397.8140	0.000661
400.6390	-0.000608
403.4661	-0.001306
406.2954	0.000005
409.1269	-0.000502
411.9605	-0.000566
414.7962	-0.000946
417.6341	-0.000270
420.4741	0.000513
423.3162	-0.001940
426.1605	-0.001348
429.0068	0.000893
431.8553	0.001380
434.7059	-0.000396
437.5586	0.001274
440.4135	-0.000735
443.2703	0.001549
446.1293	0.001591
448.9904	-0.000671
451.8535	-0.000925
454.7188	0.000322
457.5860	0.001126
460.4554	0.001337
463.3268	-0.000143
466.2003	-0.002194
469.0758	-0.000502
471.9533	-0.001115
474.8329	0.000492
477.7145	-0.000777
480.5982	0.000386
483.4838	0.001189
486.3715	0.000936
489.2612	0.000196
492.1529	0.000217
495.0466	0.001549
497.9423	0.000640
500.8400	0.000174
503.7397	0.000872
506.6414	0.001803
509.5450	0.001084
512.4506	-0.000037
515.3582	0.002035
518.2677	-0.000798
521.1792	0.000915
524.0927	-0.000798
527.0081	0.000576
529.9254	0.001295
532.8447	-0.000862
535.7659	0.000534
538.6890	-0.000608
541.6140	0.000661
544.5410	-0.001517
547.4699	0.000915
550.4007	0.000386
553.3333	-0.001052
556.2679	0.000111
559.2044	0.000449
562.1427	-0.001242
565.0829	0.000555
568.0250	-0.000523
570.9690	-0.000375
573.9149	-0.000460
576.8626	-0.001158
579.8121	0.001422
582.7635	0.000217
585.7167	0.000111
588.6718	0.000449
591.6288	0.001951
594.5875	0.000111
597.5481	0.000618
600.5105	-0.000502
603.4747	-0.000714
606.4407	-0.001052
609.4085	0.000809
612.3781	-0.000206
615.3495	-0.000248
618.3227	0.000196
621.2977	0.000767
624.2745	-0.000396
627.2530	0.002014
630.2333	0.001570
633.2154	0.001337
636.1992	0.000830
639.1848	-0.000270
642.1721	0.000091
645.1612	-0.000758
648.1520	0.001479
651.1445	0.000197
654.1388	0.001714
657.1348	-0.000840
660.1325	0.000175
663.1319	0.000069
666.1330	0.000342
669.1359	0.000280
672.1404	0.000851
675.1466	0.000111
678.1545	0.002712
681.1641	-0.001031
684.1754	0.001041
687.1883	0.000344
690.2029	-0.001644
693.2192	0.001063
696.2371	-0.001411
699.2567	-0.001073
702.2779	0.000682
705.3008	0.000745
708.3253	0.000386
711.3514	-0.000037
714.3791	0.000365
717.4085	0.001570
720.4395	0.001105
723.4721	0.002416
726.5063	0.001781
729.5421	-0.000122
732.5795	0.000893
735.6185	0.001147
738.6591	-0.000185
741.7013	0.001147
744.7450	0.000132
747.7903	-0.000143
750.8372	-0.001982
753.8856	0.000936
756.9356	0.002289
759.9872	-0.000185
763.0403	-0.001306
766.0949	-0.000270
769.1510	0.001253
772.2087	-0.000164
775.2679	0.001232
778.3287	0.000217
781.3909	0.000259
784.4547	0.000111
787.5199	-0.000143
790.5867	0.000915
793.6550	-0.000100
796.7247	-0.000037
799.7959	0.000026
802.8686	-0.000206
805.9428	0.000470
809.0185	0.001295
812.0956	0.000196
815.1742	0.001824
818.2542	0.001168
821.3357	0.000851
824.4186	0.000344
827.5029	-0.000608
830.5887	-0.000248
833.6759	0.002691
836.7646	0.000196
839.8546	0.000872
842.9461	-0.000248
846.0390	0.000957
849.1333	-0.000587
852.2289	0.000767
855.3260	-0.000841
858.4245	0.001485
861.5243	-0.000143
864.6255	-0.000164
867.7281	-0.001433
870.8321	0.001126
873.9374	-0.000904
877.0441	-0.001242
880.1521	-0.000058
883.2615	-0.000523
886.3722	0.000111
889.4843	0.000703
892.5977	0.000809
895.7124	0.001020
898.8284	0.000259
901.9458	0.000365
905.0644	0.000280
908.1844	-0.000735
911.3057	-0.000185
914.4283	-0.000777
917.5521	0.000618
920.6773	-0.000566
923.8037	-0.000312
926.9314	-0.000714
930.0604	0.000576
933.1906	0.000259
936.3221	0.000005
939.4549	0.000322
942.5889	0.000872
945.7241	0.002310
948.8606	0.001084
951.9983	0.000936
955.1373	-0.000481
958.2775	0.000386
961.4189	-0.000523
964.5615	0.000597
967.7053	0.000513
970.8504	0.002247
973.9966	0.000767
977.1440	-0.000333
980.2926	0.000492
983.4424	0.002543
986.5934	0.000745
989.7456	-0.000544
992.8989	-0.000819
996.0534	0.000703
999.2090	0.000957
1002.37	-0.000566
1005.52	0.000470
1008.68	0.000069
1011.84	-0.000354
1015	-0.001137
1018.17	0.000449
1021.33	-0.000248
1023.03	-0.002130