File: Auto_Polymerization/Data/UV_VIS_Spectra/MRG-061-F_old spectra (lamp off or wrong integration time)/spectrum_2025-06-19_09-30-27.txt
# Wavelength (nm)	Intensity (a.u.)
197.7802	0.010561
200.4334	0.010137
203.0892	0.009143
205.7475	0.011195
208.4084	0.010201
211.0718	0.010455
213.7376	0.009630
216.4060	0.010370
219.0769	0.010984
221.7503	0.008889
224.4262	0.010582
227.1046	0.009355
229.7855	0.009355
232.4688	0.011216
235.1546	0.010412
237.8429	0.010518
240.5337	0.012359
243.2269	0.011238
245.9225	0.011534
248.6206	0.012317
251.3212	0.012084
254.0242	0.011597
256.7296	0.013163
259.4375	0.010645
262.1477	0.012232
264.8604	0.011005
267.5755	0.011111
270.2931	0.012972
273.0130	0.012232
275.7353	0.010328
278.4600	0.014305
281.1871	0.011216
283.9166	0.011068
286.6484	0.011999
289.3827	0.011703
292.1193	0.011111
294.8582	0.014051
297.5995	0.012697
300.3432	0.013015
303.0892	0.010518
305.8376	0.011766
308.5883	0.010920
311.3413	0.013163
314.0967	0.010053
316.8543	0.012570
319.6143	0.012803
322.3766	0.011428
325.1412	0.014305
327.9082	0.012443
330.6774	0.012845
333.4489	0.010941
336.2227	0.012443
338.9987	0.012486
341.7771	0.011555
344.5577	0.015342
347.3406	0.012592
350.1257	0.015300
352.9131	0.010201
355.7027	0.014665
358.4946	0.013057
361.2888	0.012740
364.0851	0.015257
366.8837	0.015025
369.6845	0.013946
372.4876	0.015363
375.2928	0.014601
378.1003	0.014771
380.9100	0.017733
383.7219	0.019806
386.5359	0.040793
389.3522	0.094593
392.1706	0.201391
394.9912	0.342948
397.8140	0.522861
400.6390	0.634947
403.4661	0.752809
406.2954	0.871031
409.1269	0.905960
411.9605	0.921447
414.7962	0.968752
417.6341	0.986566
420.4741	1.000000
423.3162	1.000000
426.1605	0.998307
429.0068	1.000000
431.8553	1.000000
434.7059	1.000000
437.5586	1.000000
440.4135	0.976622
443.2703	1.000000
446.1293	1.000000
448.9904	0.932469
451.8535	0.832653
454.7188	0.710687
457.5860	0.702500
460.4554	0.659150
463.3268	0.561239
466.2003	0.583516
469.0758	0.405655
471.9533	0.327102
474.8329	0.312885
477.7145	0.272561
480.5982	0.262215
483.4838	0.221764
486.3715	0.592931
489.2612	0.174755
492.1529	0.145009
495.0466	0.132760
497.9423	0.116681
500.8400	0.111011
503.7397	0.114036
506.6414	0.109234
509.5450	0.101808
512.4506	0.094911
515.3582	0.097302
518.2677	0.103839
521.1792	0.109551
524.0927	0.123430
527.0081	0.143867
529.9254	0.163775
532.8447	0.195298
535.7659	0.269451
538.6890	0.319591
541.6140	0.391671
544.5410	0.499822
547.4699	0.574483
550.4007	0.632155
553.3333	0.760172
556.2679	0.915290
559.2044	0.868915
562.1427	1.000000
565.0829	1.000000
568.0250	1.000000
570.9690	1.000000
573.9149	1.000000
576.8626	1.000000
579.8121	1.000000
582.7635	1.000000
585.7167	1.000000
588.6718	1.000000
591.6288	1.000000
594.5875	1.000000
597.5481	1.000000
600.5105	1.000000
603.4747	1.000000
606.4407	1.000000
609.4085	1.000000
612.3781	1.000000
615.3495	1.000000
618.3227	1.000000
621.2977	1.000000
624.2745	1.000000
627.2530	1.000000
630.2333	1.000000
633.2154	1.000000
636.1992	1.000000
639.1848	1.000000
642.1721	1.000000
645.1612	1.000000
648.1520	1.000000
651.1445	1.000000
654.1388	1.000000
657.1348	1.000000
660.1325	1.000000
663.1319	1.000000
666.1330	1.000000
669.1359	1.000000
672.1404	1.000000
675.1466	1.000000
678.1545	1.000000
681.1641	1.000000
684.1754	1.000000
687.1883	1.000000
690.2029	1.000000
693.2192	1.000000
696.2371	1.000000
699.2567	1.000000
702.2779	1.000000
705.3008	1.000000
708.3253	1.000000
711.3514	1.000000
714.3791	1.000000
717.4085	1.000000
720.4395	1.000000
723.4721	1.000000
726.5063	1.000000
729.5421	1.000000
732.5795	1.000000
735.6185	1.000000
738.6591	1.000000
741.7013	1.000000
744.7450	1.000000
747.7903	1.000000
750.8372	1.000000
753.8856	1.000000
756.9356	1.000000
759.9872	1.000000
763.0403	1.000000
766.0949	1.000000
769.1510	1.000000
772.2087	1.000000
775.2679	1.000000
778.3287	1.000000
781.3909	1.000000
784.4547	1.000000
787.5199	1.000000
790.5867	1.000000
793.6550	1.000000
796.7247	1.000000
799.7959	1.000000
802.8686	1.000000
805.9428	1.000000
809.0185	1.000000
812.0956	1.000000
815.1742	1.000000
818.2542	1.000000
821.3357	1.000000
824.4186	1.000000
827.5029	1.000000
830.5887	1.000000
833.6759	1.000000
836.7646	1.000000
839.8546	1.000000
842.9461	1.000000
846.0390	1.000000
849.1333	1.000000
852.2289	1.000000
855.3260	1.000000
858.4245	1.000000
861.5243	1.000000
864.6255	1.000000
867.7281	0.188866
870.8321	0.185439
873.9374	0.170375
877.0441	0.186349
880.1521	0.277977
883.2615	0.218866
886.3722	0.222589
889.4843	0.171518
892.5977	0.171010
895.7124	0.158634
898.8284	0.168408
901.9458	0.161215
905.0644	0.163690
908.1844	0.143401
911.3057	0.132379
914.4283	0.106547
917.5521	0.145982
920.6773	0.126920
923.8037	0.107308
926.9314	0.085877
930.0604	0.075489
933.1906	0.073395
936.3221	0.061061
939.4549	0.054629
942.5889	0.043501
945.7241	0.043416
948.8606	0.037746
951.9983	0.046294
955.1373	0.043818
958.2775	0.033473
961.4189	0.029559
964.5615	0.026110
967.7053	0.028015
970.8504	0.028141
973.9966	0.024820
977.1440	0.024312
980.2926	0.020271
983.4424	0.019298
986.5934	0.017246
989.7456	0.014326
992.8989	0.013501
996.0534	0.012803
999.2090	0.013501
1002.37	0.013607
1005.52	0.013226
1008.68	0.013374
1011.84	0.016040
1015	0.011999
1018.17	0.013078
1021.33	0.011809
1023.03	-0.000970