File: Auto_Polymerization/Spectra/MRG-061-F-2_spectra_while_stopped/spectrum_2025-06-19_12-14-38.txt
# Wavelength (nm)	Intensity (a.u.)
197.7802	0.000778
200.4334	-0.000827
203.0892	0.000967
205.7475	0.000482
208.4084	0.000398
211.0718	0.000482
213.7376	0.001031
216.4060	0.000292
219.0769	0.001643
221.7503	0.000060
224.4262	0.000693
227.1046	0.001157
229.7855	0.000229
232.4688	0.000355
235.1546	0.001115
237.8429	0.001432
240.5337	0.000841
243.2269	0.000208
245.9225	0.000756
248.6206	0.000482
251.3212	0.001601
254.0242	0.001369
256.7296	0.002065
259.4375	-0.000721
262.1477	0.000503
264.8604	-0.000151
267.5755	0.000123
270.2931	-0.000088
273.0130	0.000799
275.7353	0.000102
278.4600	0.000799
281.1871	-0.000953
283.9166	-0.000341
286.6484	0.000440
289.3827	-0.000299
292.1193	-0.000405
294.8582	0.000609
297.5995	-0.001101
300.3432	0.001347
303.0892	0.001432
305.8376	0.000946
308.5883	-0.000130
311.3413	0.001179
314.0967	0.000229
316.8543	0.000714
319.6143	-0.000172
322.3766	0.001727
325.1412	0.000208
327.9082	0.001622
330.6774	0.000440
333.4489	-0.000447
336.2227	0.001495
338.9987	-0.000362
341.7771	-0.000151
344.5577	0.001242
347.3406	-0.000004
350.1257	0.001875
352.9131	0.000967
355.7027	0.000735
358.4946	0.001221
361.2888	0.000714
364.0851	-0.000975
366.8837	0.000799
369.6845	0.000018
372.4876	0.000904
375.2928	-0.000130
378.1003	0.000778
380.9100	-0.000700
383.7219	0.000714
386.5359	0.001643
389.3522	0.000334
392.1706	0.001622
394.9912	0.002466
397.8140	0.002846
400.6390	0.005210
403.4661	0.006392
406.2954	0.006878
409.1269	0.010825
411.9605	0.010530
414.7962	0.011712
417.6341	0.013569
420.4741	0.015131
423.3162	0.019248
426.1605	0.018994
429.0068	0.018530
431.8553	0.020303
434.7059	0.020092
437.5586	0.021633
440.4135	0.020493
443.2703	0.024863
446.1293	0.022182
448.9904	0.022688
451.8535	0.020767
454.7188	0.018551
457.5860	0.018108
460.4554	0.015364
463.3268	0.014372
466.2003	0.014920
469.0758	0.012092
471.9533	0.008461
474.8329	0.009770
477.7145	0.006287
480.5982	0.007089
483.4838	0.006920
486.3715	0.015659
489.2612	0.004514
492.1529	0.002762
495.0466	0.004070
497.9423	0.004176
500.8400	0.005063
503.7397	0.002888
506.6414	0.001727
509.5450	0.003057
512.4506	0.002466
515.3582	0.003395
518.2677	0.003247
521.1792	0.004282
524.0927	0.004155
527.0081	0.003332
529.9254	0.005147
532.8447	0.005316
535.7659	0.008588
538.6890	0.008651
541.6140	0.012387
544.5410	0.014414
547.4699	0.016567
550.4007	0.015912
553.3333	0.019438
556.2679	0.026910
559.2044	0.023469
562.1427	0.033939
565.0829	0.039807
568.0250	0.056293
570.9690	0.106532
573.9149	0.144464
576.8626	0.171125
579.8121	0.202471
582.7635	0.256573
585.7167	0.226809
588.6718	0.192656
591.6288	0.127746
594.5875	0.167515
597.5481	0.147124
600.5105	0.178935
603.4747	0.186091
606.4407	0.160887
609.4085	0.135451
612.3781	0.128190
615.3495	0.128063
618.3227	0.110332
621.2977	0.074679
624.2745	0.085571
627.2530	0.070162
630.2333	0.061275
633.2154	0.045275
636.1992	0.043164
639.1848	0.041095
642.1721	0.031238
645.1612	0.026956
648.1520	0.029485
651.1445	0.028088
654.1388	0.030942
657.1348	0.866051
660.1325	0.061460
663.1319	0.022121
666.1330	0.023746
669.1359	0.022182
672.1404	0.032018
675.1466	0.027016
678.1545	0.027776
681.1641	0.033390
684.1754	0.033897
687.1883	0.042488
690.2029	0.034763
693.2192	0.039132
696.2371	0.029950
699.2567	0.035227
702.2779	0.030161
705.3008	0.024082
708.3253	0.037063
711.3514	0.033602
714.3791	0.033834
717.4085	0.028388
720.4395	0.027691
723.4721	0.029802
726.5063	0.036641
729.5421	0.036113
732.5795	0.039301
735.6185	0.048293
738.6591	0.039871
741.7013	0.034995
744.7450	0.029084
747.7903	0.031997
750.8372	0.038815
753.8856	0.044325
756.9356	0.049792
759.9872	0.064125
763.0403	0.048694
766.0949	0.050404
769.1510	0.049855
772.2087	0.042383
775.2679	0.031216
778.3287	0.026699
781.3909	0.036515
784.4547	0.030182
787.5199	0.030667
790.5867	0.023786
793.6550	0.025116
796.7247	0.022329
799.7959	0.020979
802.8686	0.016672
805.9428	0.017897
809.0185	0.024060
812.0956	0.017918
815.1742	0.017854
818.2542	0.013696
821.3357	0.015786
824.4186	0.010825
827.5029	0.014920
830.5887	0.010065
833.6759	0.007427
836.7646	0.008778
839.8546	0.007701
842.9461	0.006751
846.0390	0.007300
849.1333	0.004662
852.2289	0.005717
855.3260	0.012366
858.4245	0.010192
861.5243	0.007406
864.6255	0.006076
867.7281	0.006456
870.8321	0.006076
873.9374	0.003268
877.0441	0.004429
880.1521	0.008609
883.2615	0.006730
886.3722	0.005907
889.4843	0.004577
892.5977	0.005274
895.7124	0.004450
898.8284	0.005928
901.9458	0.003775
905.0644	0.005041
908.1844	0.004429
911.3057	0.004746
914.4283	0.003184
917.5521	0.004788
920.6773	0.004134
923.8037	0.004746
926.9314	0.002888
930.0604	0.002888
933.1906	0.003163
936.3221	0.003564
939.4549	0.002677
942.5889	0.000714
945.7241	0.000398
948.8606	0.001432
951.9983	0.001284
955.1373	0.001537
958.2775	0.001875
961.4189	0.001347
964.5615	0.000545
967.7053	0.002213
970.8504	0.001622
973.9966	0.001031
977.1440	0.001200
980.2926	0.001664
983.4424	0.002783
986.5934	0.001031
989.7456	0.000313
992.8989	0.000313
996.0534	0.000735
999.2090	0.000630
1002.37	-0.000362
1005.52	-0.000468
1008.68	0.001284
1011.84	0.000018
1015	0.000778
1018.17	0.000735
1021.33	-0.001312
1023.03	0.000461