File: Auto_Polymerization/Spectra/MRG-061-F-2_spectra_while_stopped/spectrum_2025-06-19_11-23-30.txt
# Wavelength (nm)	Intensity (a.u.)
197.7802	0.000588
200.4334	0.000946
203.0892	-0.000362
205.7475	0.000482
208.4084	0.001179
211.0718	0.000355
213.7376	0.001052
216.4060	0.000461
219.0769	0.000756
221.7503	0.000039
224.4262	0.001326
227.1046	0.000060
229.7855	0.000461
232.4688	0.000144
235.1546	0.001495
237.8429	0.001136
240.5337	-0.000405
243.2269	-0.000447
245.9225	0.001221
248.6206	0.000524
251.3212	0.000777
254.0242	-0.000278
256.7296	0.001938
259.4375	0.000208
262.1477	-0.000278
264.8604	0.000250
267.5755	-0.000025
270.2931	0.000060
273.0130	0.000967
275.7353	0.000482
278.4600	0.000820
281.1871	0.000672
283.9166	-0.000088
286.6484	0.001580
289.3827	0.001558
292.1193	0.000102
294.8582	0.001938
297.5995	0.001516
300.3432	-0.000616
303.0892	0.000186
305.8376	0.000799
308.5883	-0.000932
311.3413	0.000355
314.0967	-0.000320
316.8543	-0.000004
319.6143	0.001073
322.3766	0.000208
325.1412	0.000820
327.9082	0.001896
330.6774	0.001896
333.4489	-0.000067
336.2227	0.000102
338.9987	0.001917
341.7771	-0.000658
344.5577	0.000060
347.3406	-0.000996
350.1257	0.001010
352.9131	0.001094
355.7027	-0.000383
358.4946	0.000165
361.2888	0.000503
364.0851	0.001052
366.8837	0.001157
369.6845	-0.001228
372.4876	0.000609
375.2928	0.000060
378.1003	0.000313
380.9100	0.001052
383.7219	0.001770
386.5359	0.000925
389.3522	0.002508
392.1706	0.002107
394.9912	0.003923
397.8140	0.008482
400.6390	0.010487
403.4661	0.009495
406.2954	0.016102
409.1269	0.016524
411.9605	0.018191
414.7962	0.018994
417.6341	0.019859
420.4741	0.025241
423.3162	0.026571
426.1605	0.023447
429.0068	0.026149
431.8553	0.025642
434.7059	0.023975
437.5586	0.026001
440.4135	0.025832
443.2703	0.030877
446.1293	0.029189
448.9904	0.027648
451.8535	0.022117
454.7188	0.019226
457.5860	0.020133
460.4554	0.020703
463.3268	0.016081
466.2003	0.015996
469.0758	0.012914
471.9533	0.009706
474.8329	0.010213
477.7145	0.008418
480.5982	0.007553
483.4838	0.005295
486.3715	0.019331
489.2612	0.005231
492.1529	0.005970
495.0466	0.004661
497.9423	0.004408
500.8400	0.002846
503.7397	0.004809
506.6414	0.001770
509.5450	0.003754
512.4506	0.003374
515.3582	0.004260
518.2677	0.003690
521.1792	0.003015
524.0927	0.003711
527.0081	0.003796
529.9254	0.005041
532.8447	0.006223
535.7659	0.009537
538.6890	0.009769
541.6140	0.011542
544.5410	0.013337
547.4699	0.018107
550.4007	0.020408
553.3333	0.022708
556.2679	0.029864
559.2044	0.024946
562.1427	0.035648
565.0829	0.039278
568.0250	0.056439
570.9690	0.110749
573.9149	0.152711
576.8626	0.180320
579.8121	0.208077
582.7635	0.262240
585.7167	0.229924
588.6718	0.200394
591.6288	0.130928
594.5875	0.171540
597.5481	0.152796
600.5105	0.185175
603.4747	0.188468
606.4407	0.164806
609.4085	0.136437
612.3781	0.130548
615.3495	0.129240
618.3227	0.110855
621.2977	0.074296
624.2745	0.088079
627.2530	0.071256
630.2333	0.061505
633.2154	0.046560
636.1992	0.043922
639.1848	0.043457
642.1721	0.031258
645.1612	0.026260
648.1520	0.029748
651.1445	0.028321
654.1388	0.032135
657.1348	0.861075
660.1325	0.063241
663.1319	0.023509
666.1330	0.023976
669.1359	0.021885
672.1404	0.032397
675.1466	0.027943
678.1545	0.027563
681.1641	0.032038
684.1754	0.033706
687.1883	0.044154
690.2029	0.033748
693.2192	0.042022
696.2371	0.029357
699.2567	0.037463
702.2779	0.030919
705.3008	0.025305
708.3253	0.036619
711.3514	0.035035
714.3791	0.035922
717.4085	0.027817
720.4395	0.028999
723.4721	0.028640
726.5063	0.032798
729.5421	0.038307
732.5795	0.041368
735.6185	0.046413
738.6591	0.041600
741.7013	0.035985
744.7450	0.030856
747.7903	0.031553
750.8372	0.041262
753.8856	0.043521
756.9356	0.050887
759.9872	0.059162
763.0403	0.052238
766.0949	0.049959
769.1510	0.047384
772.2087	0.042149
775.2679	0.031320
778.3287	0.024819
781.3909	0.034086
784.4547	0.031109
787.5199	0.029801
790.5867	0.024840
793.6550	0.023891
796.7247	0.022793
799.7959	0.022244
802.8686	0.016967
805.9428	0.019627
809.0185	0.023447
812.0956	0.016672
815.1742	0.017115
818.2542	0.015743
821.3357	0.014286
824.4186	0.012218
827.5029	0.014666
830.5887	0.009052
833.6759	0.008883
836.7646	0.008798
839.8546	0.008165
842.9461	0.006455
846.0390	0.006983
849.1333	0.004176
852.2289	0.005717
855.3260	0.013590
858.4245	0.011732
861.5243	0.004936
864.6255	0.006857
867.7281	0.004492
870.8321	0.006413
873.9374	0.005463
877.0441	0.005738
880.1521	0.008207
883.2615	0.007236
886.3722	0.007616
889.4843	0.004239
892.5977	0.005843
895.7124	0.004366
898.8284	0.005590
901.9458	0.004070
905.0644	0.002361
908.1844	0.004007
911.3057	0.004366
914.4283	0.003479
917.5521	0.003796
920.6773	0.002698
923.8037	0.004450
926.9314	0.002445
930.0604	0.003479
933.1906	0.001200
936.3221	0.002551
939.4549	0.002466
942.5889	0.001580
945.7241	0.001010
948.8606	0.001580
951.9983	0.002424
955.1373	0.000102
958.2775	0.000820
961.4189	0.001495
964.5615	0.000989
967.7053	0.001263
970.8504	-0.000151
973.9966	-0.000552
977.1440	0.001748
980.2926	0.000039
983.4424	0.000398
986.5934	0.000229
989.7456	0.000461
992.8989	0.000334
996.0534	0.000735
999.2090	0.000018
1002.37	0.001580
1005.52	0.000081
1008.68	0.000735
1011.84	0.001010
1015	-0.000974
1018.17	0.000545
1021.33	0.000799
1023.03	-0.000785