File: Auto_Polymerization/Spectra/MRG-061-F-2_spectra_while_stopped/spectrum_2025-06-19_11-28-37.txt
# Wavelength (nm)	Intensity (a.u.)
197.7802	0.001056
200.4334	-0.000380
203.0892	0.000443
205.7475	0.000063
208.4084	0.000317
211.0718	0.000887
213.7376	0.001795
216.4060	0.000274
219.0769	0.000422
221.7503	-0.000317
224.4262	0.000317
227.1046	0.001013
229.7855	-0.001225
232.4688	-0.001394
235.1546	0.000127
237.8429	0.000000
240.5337	0.000021
243.2269	-0.000401
245.9225	-0.000338
248.6206	0.000338
251.3212	0.000338
254.0242	0.001499
256.7296	0.000845
259.4375	0.001119
262.1477	0.000676
264.8604	0.000106
267.5755	0.001098
270.2931	0.000211
273.0130	0.000718
275.7353	0.001710
278.4600	0.000084
281.1871	0.000021
283.9166	0.000274
286.6484	0.001203
289.3827	-0.000380
292.1193	0.000655
294.8582	-0.000148
297.5995	0.001140
300.3432	0.000084
303.0892	0.000211
305.8376	0.000148
308.5883	0.000296
311.3413	-0.000232
314.0967	-0.000465
316.8543	-0.000401
319.6143	-0.000106
322.3766	0.000465
325.1412	0.000929
327.9082	0.000781
330.6774	-0.000422
333.4489	0.001499
336.2227	-0.001182
338.9987	0.000612
341.7771	-0.001182
344.5577	0.000845
347.3406	0.000338
350.1257	0.000000
352.9131	0.001225
355.7027	-0.000760
358.4946	0.000739
361.2888	0.002344
364.0851	0.000000
366.8837	0.000106
369.6845	0.001119
372.4876	-0.001056
375.2928	0.001309
378.1003	0.000633
380.9100	-0.001140
383.7219	0.000760
386.5359	0.001267
389.3522	0.000802
392.1706	0.003399
394.9912	0.004793
397.8140	0.006186
400.6390	0.007897
403.4661	0.010430
406.2954	0.014526
409.1269	0.014463
411.9605	0.014970
414.7962	0.017440
417.6341	0.017799
420.4741	0.021578
423.3162	0.024133
426.1605	0.022001
429.0068	0.022149
431.8553	0.022866
434.7059	0.024619
437.5586	0.023795
440.4135	0.023817
443.2703	0.027406
446.1293	0.026540
448.9904	0.025442
451.8535	0.022507
454.7188	0.019277
457.5860	0.019235
460.4554	0.017039
463.3268	0.015371
466.2003	0.016574
469.0758	0.013027
471.9533	0.008593
474.8329	0.010304
477.7145	0.006609
480.5982	0.007327
483.4838	0.006588
486.3715	0.017250
489.2612	0.004202
492.1529	0.004497
495.0466	0.003653
497.9423	0.004328
500.8400	0.002618
503.7397	0.003758
506.6414	0.003674
509.5450	0.004518
512.4506	0.003674
515.3582	0.005215
518.2677	0.001626
521.1792	0.002681
524.0927	0.003273
527.0081	0.003188
529.9254	0.006778
532.8447	0.005110
535.7659	0.007728
538.6890	0.009353
541.6140	0.011866
544.5410	0.013534
547.4699	0.019805
550.4007	0.018770
553.3333	0.021388
556.2679	0.026582
559.2044	0.026012
562.1427	0.032157
565.0829	0.040475
568.0250	0.054812
570.9690	0.108294
573.9149	0.152886
576.8626	0.176724
579.8121	0.206410
582.7635	0.256851
585.7167	0.234133
588.6718	0.198492
591.6288	0.130252
594.5875	0.167138
597.5481	0.148938
600.5105	0.187218
603.4747	0.181981
606.4407	0.165914
609.4085	0.135404
612.3781	0.129218
615.3495	0.128394
618.3227	0.109582
621.2977	0.077087
624.2745	0.088003
627.2530	0.070352
630.2333	0.060133
633.2154	0.046810
636.1992	0.043030
639.1848	0.039927
642.1721	0.031782
645.1612	0.026024
648.1520	0.027520
651.1445	0.027055
654.1388	0.033065
657.1348	0.870916
660.1325	0.061946
663.1319	0.021835
666.1330	0.023776
669.1359	0.022233
672.1404	0.032325
675.1466	0.027807
678.1545	0.028588
681.1641	0.034521
684.1754	0.032769
687.1883	0.043621
690.2029	0.033635
693.2192	0.038491
696.2371	0.030552
699.2567	0.036232
702.2779	0.027828
705.3008	0.025020
708.3253	0.039040
711.3514	0.032917
714.3791	0.034585
717.4085	0.027469
720.4395	0.027892
723.4721	0.027617
726.5063	0.033635
729.5421	0.037773
732.5795	0.041975
735.6185	0.047105
738.6591	0.040328
741.7013	0.033867
744.7450	0.030742
747.7903	0.031734
750.8372	0.040391
753.8856	0.040454
756.9356	0.049913
759.9872	0.059457
763.0403	0.050526
766.0949	0.050103
769.1510	0.049322
772.2087	0.038681
775.2679	0.031460
778.3287	0.026160
781.3909	0.034162
784.4547	0.029581
787.5199	0.029961
790.5867	0.024724
793.6550	0.022740
796.7247	0.021431
799.7959	0.020586
802.8686	0.017356
805.9428	0.019615
809.0185	0.022592
812.0956	0.014780
815.1742	0.015920
818.2542	0.014062
821.3357	0.015582
824.4186	0.011760
827.5029	0.014991
830.5887	0.010092
833.6759	0.009691
836.7646	0.007179
839.8546	0.007284
842.9461	0.004540
846.0390	0.005827
849.1333	0.005025
852.2289	0.005553
855.3260	0.013302
858.4245	0.010663
861.5243	0.004561
864.6255	0.006651
867.7281	0.005616
870.8321	0.005785
873.9374	0.005131
877.0441	0.005680
880.1521	0.007073
883.2615	0.007031
886.3722	0.006186
889.4843	0.002893
892.5977	0.005110
895.7124	0.004371
898.8284	0.004497
901.9458	0.004624
905.0644	0.004835
908.1844	0.003463
911.3057	0.004518
914.4283	0.004054
917.5521	0.005131
920.6773	0.003294
923.8037	0.003442
926.9314	0.000697
930.0604	0.003252
933.1906	0.002386
936.3221	0.002787
939.4549	0.002154
942.5889	0.000422
945.7241	0.001035
948.8606	0.000718
951.9983	0.002745
955.1373	0.000127
958.2775	0.000359
961.4189	0.001731
964.5615	-0.000465
967.7053	0.001035
970.8504	0.001415
973.9966	0.001394
977.1440	0.001499
980.2926	0.001351
983.4424	-0.000190
986.5934	0.000021
989.7456	0.001605
992.8989	-0.000253
996.0534	0.001182
999.2090	-0.000486
1002.37	-0.000359
1005.52	0.002196
1008.68	0.000042
1011.84	0.002301
1015	0.000169
1018.17	-0.001056
1021.33	0.000401
1023.03	-0.000528