File: Auto_Polymerization/Spectra/MRG-061-F-2_spectra_while_stopped/spectrum_2025-06-19_11-54-11.txt
# Wavelength (nm)	Intensity (a.u.)
197.7802	0.000549
200.4334	0.001013
203.0892	0.001330
205.7475	0.001498
208.4084	0.001541
211.0718	0.000359
213.7376	0.001498
216.4060	0.000211
219.0769	0.001055
221.7503	0.001034
224.4262	0.000612
227.1046	0.000253
229.7855	0.000528
232.4688	0.000485
235.1546	0.000929
237.8429	-0.000084
240.5337	0.001773
243.2269	0.001330
245.9225	0.001667
248.6206	-0.000549
251.3212	0.001034
254.0242	-0.000591
256.7296	0.001203
259.4375	-0.000633
262.1477	0.000127
264.8604	-0.001372
267.5755	0.001203
270.2931	-0.000106
273.0130	0.000886
275.7353	0.001182
278.4600	0.001393
281.1871	0.001456
283.9166	0.000971
286.6484	0.001731
289.3827	0.001097
292.1193	0.001287
294.8582	0.001604
297.5995	0.001097
300.3432	0.001182
303.0892	0.000359
305.8376	0.000148
308.5883	0.000422
311.3413	0.000612
314.0967	0.001182
316.8543	0.001625
319.6143	0.000570
322.3766	0.001604
325.1412	0.001034
327.9082	0.000781
330.6774	0.000127
333.4489	0.000654
336.2227	-0.001308
338.9987	0.002068
341.7771	0.001372
344.5577	0.001034
347.3406	0.000654
350.1257	0.001161
352.9131	0.001097
355.7027	0.001456
358.4946	0.001034
361.2888	0.000950
364.0851	-0.000106
366.8837	0.001604
369.6845	0.001182
372.4876	0.000232
375.2928	-0.000169
378.1003	0.000633
380.9100	0.000718
383.7219	0.000232
386.5359	0.001899
389.3522	0.002427
392.1706	0.000907
394.9912	0.004770
397.8140	0.004685
400.6390	0.005466
403.4661	0.008252
406.2954	0.010362
409.1269	0.010890
411.9605	0.013444
414.7962	0.014689
417.6341	0.016462
420.4741	0.018931
423.3162	0.019691
426.1605	0.020155
429.0068	0.021126
431.8553	0.020239
434.7059	0.020450
437.5586	0.022097
440.4135	0.023616
443.2703	0.027478
446.1293	0.025389
448.9904	0.023785
451.8535	0.023067
454.7188	0.020282
457.5860	0.016947
460.4554	0.017179
463.3268	0.014879
466.2003	0.014879
469.0758	0.010531
471.9533	0.009307
474.8329	0.009370
477.7145	0.007598
480.5982	0.009687
483.4838	0.006711
486.3715	0.017580
489.2612	0.004770
492.1529	0.004094
495.0466	0.004453
497.9423	0.005656
500.8400	0.002490
503.7397	0.002744
506.6414	0.003187
509.5450	0.002891
512.4506	0.003693
515.3582	0.003313
518.2677	0.004917
521.1792	0.004432
524.0927	0.005487
527.0081	0.005529
529.9254	0.005487
532.8447	0.005382
535.7659	0.008780
538.6890	0.009455
541.6140	0.012979
544.5410	0.015997
547.4699	0.016757
550.4007	0.017770
553.3333	0.022160
556.2679	0.026887
559.2044	0.023722
562.1427	0.033746
565.0829	0.037819
568.0250	0.054408
570.9690	0.111221
573.9149	0.149906
576.8626	0.175211
579.8121	0.202815
582.7635	0.253952
585.7167	0.228246
588.6718	0.193487
591.6288	0.130131
594.5875	0.167803
597.5481	0.153051
600.5105	0.180571
603.4747	0.186079
606.4407	0.158327
609.4085	0.132453
612.3781	0.131651
615.3495	0.126628
618.3227	0.110968
621.2977	0.072157
624.2745	0.083469
627.2530	0.070996
630.2333	0.062026
633.2154	0.044531
636.1992	0.044890
639.1848	0.040774
642.1721	0.032300
645.1612	0.027941
648.1520	0.029154
651.1445	0.028768
654.1388	0.034778
657.1348	0.865127
660.1325	0.061133
663.1319	0.022562
666.1330	0.026222
669.1359	0.022286
672.1404	0.032670
675.1466	0.027943
678.1545	0.027542
681.1641	0.033746
684.1754	0.032396
687.1883	0.044172
690.2029	0.036047
693.2192	0.038009
696.2371	0.029420
699.2567	0.035350
702.2779	0.031193
705.3008	0.026001
708.3253	0.038094
711.3514	0.031784
714.3791	0.033788
717.4085	0.027415
720.4395	0.028787
723.4721	0.029589
726.5063	0.034274
729.5421	0.037883
732.5795	0.040584
735.6185	0.045164
738.6591	0.041661
741.7013	0.033324
744.7450	0.031488
747.7903	0.033409
750.8372	0.039761
753.8856	0.043961
756.9356	0.050482
759.9872	0.062512
763.0403	0.051242
766.0949	0.051960
769.1510	0.048878
772.2087	0.040352
775.2679	0.030370
778.3287	0.026803
781.3909	0.034928
784.4547	0.031889
787.5199	0.030053
790.5867	0.026170
793.6550	0.024861
796.7247	0.023637
799.7959	0.023426
802.8686	0.018952
805.9428	0.023257
809.0185	0.024101
812.0956	0.018403
815.1742	0.016293
818.2542	0.013359
821.3357	0.016799
824.4186	0.011797
827.5029	0.014203
830.5887	0.010911
833.6759	0.010911
836.7646	0.008484
839.8546	0.008062
842.9461	0.005973
846.0390	0.007197
849.1333	0.005614
852.2289	0.005783
855.3260	0.013591
858.4245	0.011291
861.5243	0.004791
864.6255	0.006943
867.7281	0.005086
870.8321	0.004622
873.9374	0.005740
877.0441	0.005909
880.1521	0.007830
883.2615	0.007619
886.3722	0.007239
889.4843	0.005107
892.5977	0.004917
895.7124	0.005213
898.8284	0.005529
901.9458	0.006437
905.0644	0.004601
908.1844	0.005023
911.3057	0.003651
914.4283	0.003524
917.5521	0.005719
920.6773	0.004516
923.8037	0.003250
926.9314	0.002258
930.0604	0.003672
933.1906	0.001731
936.3221	0.002047
939.4549	0.001688
942.5889	0.002089
945.7241	0.001899
948.8606	-0.000633
951.9983	0.002089
955.1373	0.000907
958.2775	0.001709
961.4189	0.000253
964.5615	0.001541
967.7053	-0.001055
970.8504	0.000612
973.9966	0.001266
977.1440	0.000971
980.2926	0.001541
983.4424	0.001287
986.5934	0.000886
989.7456	0.000274
992.8989	0.001963
996.0534	0.001921
999.2090	-0.000148
1002.37	0.001667
1005.52	0.000317
1008.68	0.001266
1011.84	0.000570
1015	0.000528
1018.17	0.001477
1021.33	0.000507
1023.03	-0.000443