File: Auto_Polymerization/Spectra/spectra_while_stopped/spectrum_2025-06-19_12-35-06.txt
# Wavelength (nm)	Intensity (a.u.)
197.7802	-0.000004
200.4334	-0.000341
203.0892	0.000672
205.7475	0.000081
208.4084	0.000355
211.0718	0.000186
213.7376	0.000461
216.4060	0.000229
219.0769	0.000862
221.7503	0.000081
224.4262	0.001031
227.1046	0.000946
229.7855	0.000165
232.4688	0.001284
235.1546	-0.000320
237.8429	-0.001165
240.5337	0.000186
243.2269	-0.000109
245.9225	-0.000109
248.6206	0.000904
251.3212	0.000566
254.0242	-0.000574
256.7296	0.000799
259.4375	0.000313
262.1477	0.000292
264.8604	0.000609
267.5755	0.000841
270.2931	-0.001038
273.0130	-0.000447
275.7353	-0.000637
278.4600	0.001010
281.1871	0.000292
283.9166	0.002044
286.6484	0.000123
289.3827	0.001073
292.1193	0.000693
294.8582	0.000925
297.5995	0.000081
300.3432	0.001411
303.0892	0.000313
305.8376	-0.000088
308.5883	0.000102
311.3413	0.000229
314.0967	0.000334
316.8543	0.000630
319.6143	-0.000046
322.3766	0.000946
325.1412	-0.000721
327.9082	0.000609
330.6774	0.001094
333.4489	0.000693
336.2227	0.000735
338.9987	0.001326
341.7771	-0.000637
344.5577	0.001073
347.3406	-0.000637
350.1257	-0.000172
352.9131	0.000334
355.7027	0.000609
358.4946	-0.000172
361.2888	0.001031
364.0851	0.000799
366.8837	0.001960
369.6845	0.000524
372.4876	0.000609
375.2928	-0.000531
378.1003	0.000123
380.9100	0.001305
383.7219	0.002129
386.5359	-0.000299
389.3522	0.001158
392.1706	0.000609
394.9912	0.003627
397.8140	0.003754
400.6390	0.005401
403.4661	0.005929
406.2954	0.006857
409.1269	0.010151
411.9605	0.009728
414.7962	0.012578
417.6341	0.014225
420.4741	0.016716
423.3162	0.017940
426.1605	0.017413
429.0068	0.018848
431.8553	0.019587
434.7059	0.020600
437.5586	0.019904
440.4135	0.021719
443.2703	0.025772
446.1293	0.024147
448.9904	0.022352
451.8535	0.021044
454.7188	0.017370
457.5860	0.016653
460.4554	0.016420
463.3268	0.013381
466.2003	0.014964
469.0758	0.009940
471.9533	0.007005
474.8329	0.008103
477.7145	0.006414
480.5982	0.007322
483.4838	0.006857
486.3715	0.015386
489.2612	0.005084
492.1529	0.005295
495.0466	0.004873
497.9423	0.005105
500.8400	0.003459
503.7397	0.004451
506.6414	0.001411
509.5450	0.004197
512.4506	0.001728
515.3582	0.002783
518.2677	0.002340
521.1792	0.003416
524.0927	0.004303
527.0081	0.004240
529.9254	0.006309
532.8447	0.007744
535.7659	0.007765
538.6890	0.009116
541.6140	0.012431
544.5410	0.013571
547.4699	0.016589
550.4007	0.018721
553.3333	0.022374
556.2679	0.027313
559.2044	0.025899
562.1427	0.033478
565.0829	0.039663
568.0250	0.053300
570.9690	0.106647
573.9149	0.149543
576.8626	0.172300
579.8121	0.197126
582.7635	0.252900
585.7167	0.226216
588.6718	0.192630
591.6288	0.127799
594.5875	0.167107
597.5481	0.148108
600.5105	0.183763
603.4747	0.182771
606.4407	0.161893
609.4085	0.129045
612.3781	0.129742
615.3495	0.125055
618.3227	0.110130
621.2977	0.074010
624.2745	0.086866
627.2530	0.072342
630.2333	0.059971
633.2154	0.044730
636.1992	0.043167
639.1848	0.038333
642.1721	0.030666
645.1612	0.028215
648.1520	0.030915
651.1445	0.028453
654.1388	0.034357
657.1348	0.858398
660.1325	0.061593
663.1319	0.023428
666.1330	0.024945
669.1359	0.020305
672.1404	0.030353
675.1466	0.026321
678.1545	0.028643
681.1641	0.034808
684.1754	0.032971
687.1883	0.045004
690.2029	0.036581
693.2192	0.039156
696.2371	0.030269
699.2567	0.035779
702.2779	0.031198
705.3008	0.023070
708.3253	0.039642
711.3514	0.033140
714.3791	0.033984
717.4085	0.027166
720.4395	0.028242
723.4721	0.027229
726.5063	0.032127
729.5421	0.037066
732.5795	0.042830
735.6185	0.047896
738.6591	0.040887
741.7013	0.034618
744.7450	0.028453
747.7903	0.029931
750.8372	0.038038
753.8856	0.042070
756.9356	0.050324
759.9872	0.060457
763.0403	0.051084
766.0949	0.051253
769.1510	0.047347
772.2087	0.040972
775.2679	0.029994
778.3287	0.025962
781.3909	0.034048
784.4547	0.029910
787.5199	0.030987
790.5867	0.024590
793.6550	0.022986
796.7247	0.022542
799.7959	0.023577
802.8686	0.016906
805.9428	0.020727
809.0185	0.022838
812.0956	0.016610
815.1742	0.016463
818.2542	0.015090
821.3357	0.016230
824.4186	0.011312
827.5029	0.014837
830.5887	0.010784
833.6759	0.009264
836.7646	0.008715
839.8546	0.007913
842.9461	0.005675
846.0390	0.004852
849.1333	0.004683
852.2289	0.006646
855.3260	0.011122
858.4245	0.011122
861.5243	0.007364
864.6255	0.007364
867.7281	0.003965
870.8321	0.004789
873.9374	0.006013
877.0441	0.005675
880.1521	0.008757
883.2615	0.005760
886.3722	0.006815
889.4843	0.005169
892.5977	0.004873
895.7124	0.004704
898.8284	0.005316
901.9458	0.005105
905.0644	0.005021
908.1844	0.003374
911.3057	0.004535
914.4283	0.002361
917.5521	0.004620
920.6773	0.004577
923.8037	0.004092
926.9314	0.001896
930.0604	0.001622
933.1906	0.002002
936.3221	0.002023
939.4549	0.002298
942.5889	0.001179
945.7241	0.001833
948.8606	0.001073
951.9983	0.002150
955.1373	0.001348
958.2775	0.001580
961.4189	0.001136
964.5615	0.002108
967.7053	0.000693
970.8504	0.002635
973.9966	-0.000384
977.1440	0.001918
980.2926	-0.000489
983.4424	0.000778
986.5934	0.001052
989.7456	0.001200
992.8989	0.000123
996.0534	0.000545
999.2090	0.000165
1002.37	-0.001143
1005.52	0.000440
1008.68	0.000144
1011.84	0.000482
1015	-0.000130
1018.17	0.000208
1021.33	-0.000384
1023.03	0.000756