File: Auto_Polymerization/Spectra/spectra_while_stopped/spectrum_2025-06-19_11-43-57.txt
# Wavelength (nm)	Intensity (a.u.)
197.7802	0.001175
200.4334	-0.000134
203.0892	-0.000746
205.7475	0.000584
208.4084	0.001323
211.0718	0.000647
213.7376	0.001492
216.4060	0.000415
219.0769	0.000077
221.7503	-0.000260
224.4262	-0.000155
227.1046	0.000183
229.7855	-0.000493
232.4688	0.001049
235.1546	0.000352
237.8429	-0.000303
240.5337	0.000753
243.2269	-0.000282
245.9225	-0.000936
248.6206	-0.000683
251.3212	-0.000070
254.0242	-0.000218
256.7296	-0.000767
259.4375	0.000436
262.1477	0.000647
264.8604	-0.000704
267.5755	0.001429
270.2931	0.001070
273.0130	0.000690
275.7353	0.000246
278.4600	0.000289
281.1871	0.000183
283.9166	0.001027
286.6484	0.000880
289.3827	0.000690
292.1193	-0.000852
294.8582	0.000331
297.5995	0.000753
300.3432	0.000922
303.0892	0.001154
305.8376	0.001133
308.5883	0.000711
311.3413	0.001091
314.0967	-0.000704
316.8543	0.000880
319.6143	0.000267
322.3766	0.001006
325.1412	-0.000345
327.9082	0.001260
330.6774	-0.000028
333.4489	-0.000303
336.2227	-0.001020
338.9987	0.001302
341.7771	-0.000303
344.5577	0.001112
347.3406	-0.000239
350.1257	0.000289
352.9131	0.001175
355.7027	0.000289
358.4946	0.000267
361.2888	0.001534
364.0851	0.000837
366.8837	0.000859
369.6845	-0.000070
372.4876	0.000120
375.2928	0.000035
378.1003	0.000331
380.9100	0.001682
383.7219	-0.000556
386.5359	-0.000472
389.3522	-0.000070
392.1706	0.002041
394.9912	0.003054
397.8140	0.004384
400.6390	0.006221
403.4661	0.007678
406.2954	0.011225
409.1269	0.012048
411.9605	0.013210
414.7962	0.014687
417.6341	0.016208
420.4741	0.018551
423.3162	0.020367
426.1605	0.020113
429.0068	0.022267
431.8553	0.022077
434.7059	0.021275
437.5586	0.022541
440.4135	0.022267
443.2703	0.028115
446.1293	0.026215
448.9904	0.025919
451.8535	0.021908
454.7188	0.017263
457.5860	0.018150
460.4554	0.017031
463.3268	0.015025
466.2003	0.014582
469.0758	0.011711
471.9533	0.008691
474.8329	0.008839
477.7145	0.008565
480.5982	0.005862
483.4838	0.005947
486.3715	0.015279
489.2612	0.003857
492.1529	0.004342
495.0466	0.004089
497.9423	0.003983
500.8400	0.002273
503.7397	0.003835
506.6414	0.002062
509.5450	0.002907
512.4506	0.002146
515.3582	0.004194
518.2677	0.002928
521.1792	0.002632
524.0927	0.003477
527.0081	0.004089
529.9254	0.004216
532.8447	0.005926
535.7659	0.006643
538.6890	0.009515
541.6140	0.012998
544.5410	0.015469
547.4699	0.016651
550.4007	0.018108
553.3333	0.021296
556.2679	0.025561
559.2044	0.024062
562.1427	0.033795
565.0829	0.038270
568.0250	0.053472
570.9690	0.109146
573.9149	0.150506
576.8626	0.179156
579.8121	0.202422
582.7635	0.258498
585.7167	0.229721
588.6718	0.190515
591.6288	0.129541
594.5875	0.167037
597.5481	0.152448
600.5105	0.183294
603.4747	0.187390
606.4407	0.162857
609.4085	0.132201
612.3781	0.128021
615.3495	0.124368
618.3227	0.107309
621.2977	0.075936
624.2745	0.086429
627.2530	0.072621
630.2333	0.059531
633.2154	0.045575
636.1992	0.044288
639.1848	0.039411
642.1721	0.032029
645.1612	0.027137
648.1520	0.030146
651.1445	0.027898
654.1388	0.033056
657.1348	0.867292
660.1325	0.061299
663.1319	0.020584
666.1330	0.021941
669.1359	0.020177
672.1404	0.031725
675.1466	0.026194
678.1545	0.029593
681.1641	0.034048
684.1754	0.033985
687.1883	0.043316
690.2029	0.032950
693.2192	0.037785
696.2371	0.028221
699.2567	0.034153
702.2779	0.032063
705.3008	0.022837
708.3253	0.037531
711.3514	0.033077
714.3791	0.034512
717.4085	0.026870
720.4395	0.028284
723.4721	0.028010
726.5063	0.035695
729.5421	0.036919
732.5795	0.041290
735.6185	0.046821
738.6591	0.041817
741.7013	0.034597
744.7450	0.030248
747.7903	0.030205
750.8372	0.038735
753.8856	0.043739
756.9356	0.051930
759.9872	0.060734
763.0403	0.049270
766.0949	0.049312
769.1510	0.047518
772.2087	0.041374
775.2679	0.029192
778.3287	0.025983
781.3909	0.034681
784.4547	0.031578
787.5199	0.028305
790.5867	0.024864
793.6550	0.023133
796.7247	0.021908
799.7959	0.019586
802.8686	0.019100
805.9428	0.019501
809.0185	0.021929
812.0956	0.014814
815.1742	0.014519
818.2542	0.014455
821.3357	0.014962
824.4186	0.010507
827.5029	0.013611
830.5887	0.009916
833.6759	0.009642
836.7646	0.007910
839.8546	0.008079
842.9461	0.005883
846.0390	0.006116
849.1333	0.004574
852.2289	0.006876
855.3260	0.012281
858.4245	0.011879
861.5243	0.006601
864.6255	0.006031
867.7281	0.005862
870.8321	0.005989
873.9374	0.004638
877.0441	0.005081
880.1521	0.008290
883.2615	0.007382
886.3722	0.007024
889.4843	0.004828
892.5977	0.005630
895.7124	0.005313
898.8284	0.005356
901.9458	0.005187
905.0644	0.003941
908.1844	0.004807
911.3057	0.002674
914.4283	0.003265
917.5521	0.004701
920.6773	0.002083
923.8037	0.003392
926.9314	0.003835
930.0604	0.002590
933.1906	0.003223
936.3221	0.001766
939.4549	0.002336
942.5889	0.000626
945.7241	0.000647
948.8606	0.002210
951.9983	0.002062
955.1373	-0.000197
958.2775	0.001344
961.4189	0.000795
964.5615	0.001323
967.7053	0.001218
970.8504	0.000077
973.9966	0.001471
977.1440	0.001154
980.2926	0.000521
983.4424	0.000690
986.5934	0.000415
989.7456	0.000626
992.8989	0.001260
996.0534	-0.000999
999.2090	0.000267
1002.37	-0.000176
1005.52	0.000711
1008.68	0.000077
1011.84	0.000056
1015	-0.000113
1018.17	0.001175
1021.33	0.000605
1023.03	-0.000197