File: Auto_Polymerization/Spectra/spectra_while_stopped/spectrum_2025-06-19_12-50-27.txt
# Wavelength (nm)	Intensity (a.u.)
197.7802	0.001156
200.4334	0.001156
203.0892	0.000480
205.7475	-0.000744
208.4084	0.000733
211.0718	0.000670
213.7376	0.000121
216.4060	0.000565
219.0769	0.000839
221.7503	0.000881
224.4262	0.000755
227.1046	0.000818
229.7855	0.000586
232.4688	-0.000449
235.1546	0.000100
237.8429	0.000206
240.5337	-0.000660
243.2269	0.000670
245.9225	0.000164
248.6206	0.001134
251.3212	0.000121
254.0242	0.000586
256.7296	0.000923
259.4375	0.000332
262.1477	0.001092
264.8604	-0.000828
267.5755	0.000543
270.2931	0.000881
273.0130	0.001071
275.7353	0.001430
278.4600	0.000269
281.1871	-0.000343
283.9166	0.000797
286.6484	-0.000026
289.3827	0.001493
292.1193	0.000881
294.8582	0.000375
297.5995	0.000565
300.3432	0.000733
303.0892	0.000860
305.8376	0.001451
308.5883	0.000501
311.3413	0.001894
314.0967	0.001261
316.8543	-0.000132
319.6143	0.000628
322.3766	0.000079
325.1412	-0.000406
327.9082	0.000354
330.6774	-0.001293
333.4489	0.000459
336.2227	0.000923
338.9987	0.001683
341.7771	0.000522
344.5577	0.000480
347.3406	0.000691
350.1257	0.000543
352.9131	0.001535
355.7027	0.000185
358.4946	0.001388
361.2888	0.001113
364.0851	0.001324
366.8837	0.000142
369.6845	0.000691
372.4876	0.001156
375.2928	-0.000596
378.1003	0.000142
380.9100	0.000522
383.7219	0.001789
386.5359	0.001008
389.3522	0.000501
392.1706	0.000332
394.9912	0.002823
397.8140	0.002253
400.6390	0.003688
403.4661	0.006538
406.2954	0.006749
409.1269	0.008501
411.9605	0.008142
414.7962	0.010084
417.6341	0.012933
420.4741	0.015044
423.3162	0.017028
426.1605	0.017112
429.0068	0.017999
431.8553	0.017977
434.7059	0.021249
437.5586	0.020257
440.4135	0.019455
443.2703	0.024098
446.1293	0.021840
448.9904	0.022769
451.8535	0.019919
454.7188	0.018948
457.5860	0.016584
460.4554	0.016162
463.3268	0.014347
466.2003	0.015951
469.0758	0.012047
471.9533	0.007466
474.8329	0.008627
477.7145	0.007488
480.5982	0.007298
483.4838	0.006749
486.3715	0.015360
489.2612	0.004512
492.1529	0.006263
495.0466	0.003709
497.9423	0.004849
500.8400	0.003815
503.7397	0.003604
506.6414	0.003456
509.5450	0.005081
512.4506	0.003097
515.3582	0.003076
518.2677	0.003498
521.1792	0.002739
524.0927	0.003541
527.0081	0.004512
529.9254	0.005377
532.8447	0.005060
535.7659	0.008395
538.6890	0.009915
541.6140	0.011983
544.5410	0.013123
547.4699	0.017809
550.4007	0.016690
553.3333	0.019413
556.2679	0.026061
559.2044	0.024584
562.1427	0.030684
565.0829	0.038303
568.0250	0.053120
570.9690	0.105443
573.9149	0.146411
576.8626	0.173131
579.8121	0.197446
582.7635	0.250255
585.7167	0.224399
588.6718	0.190291
591.6288	0.125578
594.5875	0.164182
597.5481	0.147360
600.5105	0.176762
603.4747	0.180498
606.4407	0.165132
609.4085	0.131066
612.3781	0.124481
615.3495	0.126549
618.3227	0.107617
621.2977	0.073530
624.2745	0.082627
627.2530	0.073213
630.2333	0.061731
633.2154	0.044529
636.1992	0.043727
639.1848	0.041427
642.1721	0.030169
645.1612	0.027579
648.1520	0.031413
651.1445	0.031257
654.1388	0.033368
657.1348	0.857412
660.1325	0.059605
663.1319	0.019822
666.1330	0.024015
669.1359	0.020890
672.1404	0.033660
675.1466	0.027074
678.1545	0.026568
681.1641	0.033681
684.1754	0.033427
687.1883	0.043727
690.2029	0.034251
693.2192	0.039654
696.2371	0.030071
699.2567	0.036530
702.2779	0.029375
705.3008	0.025365
708.3253	0.038387
711.3514	0.032541
714.3791	0.035243
717.4085	0.027560
720.4395	0.029966
723.4721	0.029375
726.5063	0.033280
729.5421	0.038535
732.5795	0.040055
735.6185	0.048139
738.6591	0.040646
741.7013	0.034588
744.7450	0.030430
747.7903	0.031275
750.8372	0.042081
753.8856	0.043263
756.9356	0.052508
759.9872	0.061963
763.0403	0.048497
766.0949	0.052001
769.1510	0.050249
772.2087	0.040245
775.2679	0.030726
778.3287	0.025977
781.3909	0.034989
784.4547	0.030768
787.5199	0.028510
790.5867	0.026209
793.6550	0.022937
796.7247	0.023106
799.7959	0.019244
802.8686	0.018484
805.9428	0.019159
809.0185	0.024309
812.0956	0.016542
815.1742	0.016183
818.2542	0.014453
821.3357	0.015698
824.4186	0.010632
827.5029	0.014263
830.5887	0.009028
833.6759	0.009556
836.7646	0.007846
839.8546	0.008564
842.9461	0.005419
846.0390	0.007108
849.1333	0.004427
852.2289	0.006854
855.3260	0.012342
858.4245	0.010358
861.5243	0.006031
864.6255	0.006538
867.7281	0.005736
870.8321	0.007002
873.9374	0.004701
877.0441	0.006538
880.1521	0.007973
883.2615	0.005757
886.3722	0.006474
889.4843	0.004596
892.5977	0.005968
895.7124	0.006580
898.8284	0.005461
901.9458	0.005356
905.0644	0.005609
908.1844	0.004026
911.3057	0.004786
914.4283	0.003330
917.5521	0.004448
920.6773	0.003245
923.8037	0.003878
926.9314	0.003393
930.0604	0.002929
933.1906	0.002464
936.3221	0.002907
939.4549	0.001789
942.5889	0.001430
945.7241	0.001725
948.8606	0.001303
951.9983	0.001662
955.1373	0.002126
958.2775	0.001937
961.4189	0.001261
964.5615	0.001747
967.7053	0.001367
970.8504	0.000818
973.9966	0.000417
977.1440	0.000691
980.2926	0.001134
983.4424	0.000691
986.5934	0.002148
989.7456	0.001367
992.8989	0.001113
996.0534	0.001747
999.2090	0.000902
1002.37	0.000565
1005.52	0.000733
1008.68	0.001113
1011.84	0.000797
1015	0.000079
1018.17	0.001324
1021.33	0.000797
1023.03	0.000290