File: Auto_Polymerization/Spectra/spectra_while_stopped/spectrum_2025-06-19_11-06-50.txt
# Wavelength (nm)	Intensity (a.u.)
197.7802	-0.000100
200.4334	0.000005
203.0892	0.000723
205.7475	-0.001304
208.4084	0.000723
211.0718	0.000026
213.7376	0.000364
216.4060	0.001124
219.0769	0.000216
221.7503	0.000428
224.4262	-0.000523
227.1046	0.001779
229.7855	-0.000333
232.4688	-0.000311
235.1546	0.000406
237.8429	-0.000079
240.5337	0.001061
243.2269	0.000871
245.9225	0.000322
248.6206	0.000132
251.3212	0.001167
254.0242	0.000026
256.7296	-0.000079
259.4375	0.000575
262.1477	0.001040
264.8604	0.000808
267.5755	-0.000143
270.2931	-0.000691
273.0130	0.000786
275.7353	0.001631
278.4600	-0.000269
281.1871	0.000660
283.9166	-0.000586
286.6484	0.000934
289.3827	0.000723
292.1193	0.000491
294.8582	0.001230
297.5995	0.000765
300.3432	-0.001198
303.0892	0.000174
305.8376	0.000702
308.5883	-0.001072
311.3413	-0.000417
314.0967	-0.000396
316.8543	-0.000882
319.6143	0.000195
322.3766	0.001061
325.1412	-0.000164
327.9082	0.000385
330.6774	-0.000459
333.4489	-0.000438
336.2227	0.000238
338.9987	0.000596
341.7771	0.000955
344.5577	0.000449
347.3406	0.000554
350.1257	0.000808
352.9131	-0.000459
355.7027	0.001167
358.4946	0.000322
361.2888	-0.000354
364.0851	0.000934
366.8837	0.001821
369.6845	-0.000523
372.4876	0.000026
375.2928	-0.000818
378.1003	0.000195
380.9100	-0.000143
383.7219	0.000385
386.5359	-0.000016
389.3522	0.001378
392.1706	0.004249
394.9912	0.006128
397.8140	0.011829
400.6390	0.012061
403.4661	0.017361
406.2954	0.022048
409.1269	0.021330
411.9605	0.021014
414.7962	0.023083
417.6341	0.024033
420.4741	0.026757
423.3162	0.032394
426.1605	0.025279
429.0068	0.028910
431.8553	0.029016
434.7059	0.027010
437.5586	0.027432
440.4135	0.025300
443.2703	0.031106
446.1293	0.028446
448.9904	0.026778
451.8535	0.024075
454.7188	0.019937
457.5860	0.021035
460.4554	0.020612
463.3268	0.016432
466.2003	0.016622
469.0758	0.012779
471.9533	0.009612
474.8329	0.008240
477.7145	0.007944
480.5982	0.009211
483.4838	0.006128
486.3715	0.018015
489.2612	0.007290
492.1529	0.004460
495.0466	0.003848
497.9423	0.003067
500.8400	0.002813
503.7397	0.004460
506.6414	0.002286
509.5450	0.002518
512.4506	0.002032
515.3582	0.001737
518.2677	0.003574
521.1792	0.002053
524.0927	0.003679
527.0081	0.004777
529.9254	0.007057
532.8447	0.005981
535.7659	0.010055
538.6890	0.009697
541.6140	0.011027
544.5410	0.013666
547.4699	0.015777
550.4007	0.017720
553.3333	0.023125
556.2679	0.026123
559.2044	0.025785
562.1427	0.034020
565.0829	0.038116
568.0250	0.053339
570.9690	0.110769
573.9149	0.154284
576.8626	0.185322
579.8121	0.208399
582.7635	0.260593
585.7167	0.238972
588.6718	0.201748
591.6288	0.134437
594.5875	0.171492
597.5481	0.150716
600.5105	0.177594
603.4747	0.189756
606.4407	0.165496
609.4085	0.135683
612.3781	0.131017
615.3495	0.130257
618.3227	0.109502
621.2977	0.075445
624.2745	0.088810
627.2530	0.073439
630.2333	0.060687
633.2154	0.046076
636.1992	0.044851
639.1848	0.041008
642.1721	0.030914
645.1612	0.027398
648.1520	0.029546
651.1445	0.028658
654.1388	0.033519
657.1348	0.875730
660.1325	0.061356
663.1319	0.021777
666.1330	0.023508
669.1359	0.019789
672.1404	0.031127
675.1466	0.026018
678.1545	0.029248
681.1641	0.033175
684.1754	0.032415
687.1883	0.043183
690.2029	0.032880
693.2192	0.037018
696.2371	0.030261
699.2567	0.034759
702.2779	0.030979
705.3008	0.024941
708.3253	0.036701
711.3514	0.031761
714.3791	0.034379
717.4085	0.025469
720.4395	0.027137
723.4721	0.029396
726.5063	0.033640
729.5421	0.038052
732.5795	0.040671
735.6185	0.050108
738.6591	0.042550
741.7013	0.035223
744.7450	0.029522
747.7903	0.029712
750.8372	0.040291
753.8856	0.043838
756.9356	0.050003
759.9872	0.059504
763.0403	0.048440
766.0949	0.050552
769.1510	0.049011
772.2087	0.038834
775.2679	0.031634
778.3287	0.026123
781.3909	0.034505
784.4547	0.030029
787.5199	0.029396
790.5867	0.028171
793.6550	0.024624
796.7247	0.023589
799.7959	0.020570
802.8686	0.016537
805.9428	0.019578
809.0185	0.022660
812.0956	0.017466
815.1742	0.015545
818.2542	0.013898
821.3357	0.014806
824.4186	0.009739
827.5029	0.014658
830.5887	0.010520
833.6759	0.010330
836.7646	0.008050
839.8546	0.008092
842.9461	0.006656
846.0390	0.006867
849.1333	0.004355
852.2289	0.005706
855.3260	0.012906
858.4245	0.009359
861.5243	0.004524
864.6255	0.005495
867.7281	0.005157
870.8321	0.005410
873.9374	0.005220
877.0441	0.004671
880.1521	0.009929
883.2615	0.006128
886.3722	0.006529
889.4843	0.003996
892.5977	0.004925
895.7124	0.004777
898.8284	0.003679
901.9458	0.003700
905.0644	0.005516
908.1844	0.004249
911.3057	0.004165
914.4283	0.001863
917.5521	0.004439
920.6773	0.002222
923.8037	0.003658
926.9314	0.002264
930.0604	0.001019
933.1906	0.001504
936.3221	0.002349
939.4549	0.002497
942.5889	0.000744
945.7241	0.001082
948.8606	0.001209
951.9983	0.000913
955.1373	-0.000016
958.2775	0.000132
961.4189	0.000618
964.5615	0.000639
967.7053	0.000343
970.8504	0.002053
973.9966	-0.000185
977.1440	0.001483
980.2926	0.000470
983.4424	0.000132
986.5934	-0.001325
989.7456	-0.000248
992.8989	-0.000206
996.0534	0.000259
999.2090	0.000005
1002.37	0.000808
1005.52	0.000069
1008.68	-0.000565
1011.84	0.000259
1015	-0.001578
1018.17	0.002159
1021.33	0.000575
1023.03	-0.000776