File: Auto_Polymerization/Spectra/DMSO+CTA_spectrum_2025-06-19_14-58-38.txt
# Wavelength (nm)	Intensity (a.u.)
197.7802	0.000294
200.4334	0.001771
203.0892	-0.000403
205.7475	0.000146
208.4084	0.000589
211.0718	-0.001394
213.7376	0.000484
216.4060	-0.000571
219.0769	0.000315
221.7503	-0.000677
224.4262	-0.001205
227.1046	0.000083
229.7855	0.001602
232.4688	0.000420
235.1546	0.001665
237.8429	0.000441
240.5337	0.000040
243.2269	-0.000930
245.9225	0.000378
248.6206	0.000294
251.3212	0.000167
254.0242	0.001518
256.7296	0.000927
259.4375	0.000209
262.1477	0.000125
264.8604	0.000631
267.5755	-0.000656
270.2931	0.000019
273.0130	-0.000445
275.7353	0.000484
278.4600	0.000230
281.1871	0.000526
283.9166	0.001581
286.6484	0.000083
289.3827	0.000399
292.1193	-0.000445
294.8582	0.000188
297.5995	-0.000804
300.3432	0.001138
303.0892	0.000441
305.8376	0.000420
308.5883	0.001138
311.3413	-0.000424
314.0967	0.000146
316.8543	0.000526
319.6143	0.000969
322.3766	0.001750
325.1412	0.000441
327.9082	0.000146
330.6774	0.001792
333.4489	0.001370
336.2227	-0.000888
338.9987	0.001496
341.7771	0.000779
344.5577	0.000336
347.3406	0.001940
350.1257	0.000294
352.9131	0.000462
355.7027	0.000399
358.4946	-0.000761
361.2888	0.000378
364.0851	0.000083
366.8837	-0.000149
369.6845	-0.000297
372.4876	0.002024
375.2928	0.003543
378.1003	0.003944
380.9100	0.006898
383.7219	0.010760
386.5359	0.010274
389.3522	0.016267
392.1706	0.020698
394.9912	0.025214
397.8140	0.027809
400.6390	0.029097
403.4661	0.029624
406.2954	0.032431
409.1269	0.032810
411.9605	0.033296
414.7962	0.032410
417.6341	0.033085
420.4741	0.037495
423.3162	0.041842
426.1605	0.035532
429.0068	0.037221
431.8553	0.039774
434.7059	0.037621
437.5586	0.038529
440.4135	0.041884
443.2703	0.044585
446.1293	0.043382
448.9904	0.042686
451.8535	0.041525
454.7188	0.037664
457.5860	0.037706
460.4554	0.035807
463.3268	0.031755
466.2003	0.041272
469.0758	0.030574
471.9533	0.025910
474.8329	0.027430
477.7145	0.023990
480.5982	0.027240
483.4838	0.025298
486.3715	0.085352
489.2612	0.022408
492.1529	0.020023
495.0466	0.021120
497.9423	0.019242
500.8400	0.019031
503.7397	0.017871
506.6414	0.015360
509.5450	0.015212
512.4506	0.014326
515.3582	0.011899
518.2677	0.012786
521.1792	0.011730
524.0927	0.013144
527.0081	0.012722
529.9254	0.013883
532.8447	0.015360
535.7659	0.016541
538.6890	0.021500
541.6140	0.021796
544.5410	0.026480
547.4699	0.027978
550.4007	0.030700
553.3333	0.031987
556.2679	0.034541
559.2044	0.032789
562.1427	0.041356
565.0829	0.046779
568.0250	0.066361
570.9690	0.123186
573.9149	0.166106
576.8626	0.188663
579.8121	0.218838
582.7635	0.300604
585.7167	0.249012
588.6718	0.207633
591.6288	0.132661
594.5875	0.174420
597.5481	0.150998
600.5105	0.184865
603.4747	0.182628
606.4407	0.171846
609.4085	0.137535
612.3781	0.132070
615.3495	0.127132
618.3227	0.108331
621.2977	0.080541
624.2745	0.085373
627.2530	0.070096
630.2333	0.060136
633.2154	0.043614
636.1992	0.042264
639.1848	0.041631
642.1721	0.030484
645.1612	0.029033
648.1520	0.025504
651.1445	0.027760
654.1388	0.031551
657.1348	1.000000
660.1325	0.082578
663.1319	0.024492
666.1330	0.024222
669.1359	0.021458
672.1404	0.029498
675.1466	0.023547
678.1545	0.027155
681.1641	0.034604
684.1754	0.032515
687.1883	0.043298
690.2029	0.036440
693.2192	0.036060
696.2371	0.029751
699.2567	0.036651
702.2779	0.027113
705.3008	0.023821
708.3253	0.040069
711.3514	0.033211
714.3791	0.035174
717.4085	0.029265
720.4395	0.027978
723.4721	0.028379
726.5063	0.032621
729.5421	0.035680
732.5795	0.038761
735.6185	0.046800
738.6591	0.039310
741.7013	0.032768
744.7450	0.029265
747.7903	0.031671
750.8372	0.039436
753.8856	0.039077
756.9356	0.047370
759.9872	0.059377
763.0403	0.048003
766.0949	0.050367
769.1510	0.048151
772.2087	0.041399
775.2679	0.028886
778.3287	0.025868
781.3909	0.031629
784.4547	0.031798
787.5199	0.028928
790.5867	0.024433
793.6550	0.020171
796.7247	0.023716
799.7959	0.021753
802.8686	0.017301
805.9428	0.018652
809.0185	0.023041
812.0956	0.016141
815.1742	0.016499
818.2542	0.014136
821.3357	0.015592
824.4186	0.012300
827.5029	0.011646
830.5887	0.011076
833.6759	0.011224
836.7646	0.009346
839.8546	0.007447
842.9461	0.004915
846.0390	0.005885
849.1333	0.004746
852.2289	0.004472
855.3260	0.013524
858.4245	0.009979
861.5243	0.004577
864.6255	0.005485
867.7281	0.006096
870.8321	0.004408
873.9374	0.005463
877.0441	0.005252
880.1521	0.007574
883.2615	0.006497
886.3722	0.006772
889.4843	0.004387
892.5977	0.004788
895.7124	0.004134
898.8284	0.004915
901.9458	0.004725
905.0644	0.004029
908.1844	0.002678
911.3057	0.004366
914.4283	0.004134
917.5521	0.003796
920.6773	0.005020
923.8037	0.002362
926.9314	0.002256
930.0604	0.002889
933.1906	0.002214
936.3221	0.001623
939.4549	0.002573
942.5889	0.000652
945.7241	0.000568
948.8606	0.000315
951.9983	0.001201
955.1373	0.002066
958.2775	0.001011
961.4189	0.001982
964.5615	-0.000023
967.7053	0.000652
970.8504	0.000716
973.9966	0.000273
977.1440	0.000758
980.2926	0.001243
983.4424	0.000251
986.5934	-0.000002
989.7456	0.000927
992.8989	0.001454
996.0534	0.002530
999.2090	0.000758
1002.37	0.001454
1005.52	-0.001078
1008.68	0.001264
1011.84	0.000863
1015	0.001011
1018.17	-0.000044
1021.33	0.001665
1023.03	-0.000382