File: Auto_Polymerization/Spectra/DMSO+Anisole_spectrum_2025-06-19_14-50-25.txt
# Wavelength (nm)	Intensity (a.u.)
197.7802	0.000215
200.4334	0.000004
203.0892	0.000257
205.7475	-0.000208
208.4084	-0.000039
211.0718	-0.000524
213.7376	-0.000440
216.4060	0.000383
219.0769	0.000447
221.7503	-0.000524
224.4262	-0.000503
227.1046	-0.000693
229.7855	-0.000988
232.4688	0.000151
235.1546	0.000932
237.8429	-0.000566
240.5337	0.000362
243.2269	-0.001199
245.9225	0.000784
248.6206	-0.000419
251.3212	0.000130
254.0242	-0.000376
256.7296	0.000658
259.4375	-0.000988
262.1477	-0.000461
264.8604	0.000257
267.5755	-0.000777
270.2931	0.000046
273.0130	0.000447
275.7353	-0.000208
278.4600	0.000594
281.1871	0.001903
283.9166	-0.000461
286.6484	0.000510
289.3827	0.001101
292.1193	-0.001010
294.8582	-0.000988
297.5995	0.000468
300.3432	0.001544
303.0892	-0.000250
305.8376	0.001375
308.5883	0.001080
311.3413	0.000193
314.0967	-0.000355
316.8543	0.001418
319.6143	0.000763
322.3766	0.001882
325.1412	0.002832
327.9082	0.002578
330.6774	0.002599
333.4489	0.002409
336.2227	0.003676
338.9987	0.004393
341.7771	0.004288
344.5577	0.006483
347.3406	0.007390
350.1257	0.008192
352.9131	0.008044
355.7027	0.009627
358.4946	0.010387
361.2888	0.008931
364.0851	0.009543
366.8837	0.010957
369.6845	0.012223
372.4876	0.011970
375.2928	0.015726
378.1003	0.018027
380.9100	0.018428
383.7219	0.021129
386.5359	0.021171
389.3522	0.024316
392.1706	0.026659
394.9912	0.029719
397.8140	0.033771
400.6390	0.031534
403.4661	0.032188
406.2954	0.034087
409.1269	0.033729
411.9605	0.030668
414.7962	0.034214
417.6341	0.032821
420.4741	0.036578
423.3162	0.041854
426.1605	0.035923
429.0068	0.038245
431.8553	0.039195
434.7059	0.040292
437.5586	0.041980
440.4135	0.040018
443.2703	0.051098
446.1293	0.048649
448.9904	0.047869
451.8535	0.047636
454.7188	0.043627
457.5860	0.046434
460.4554	0.048649
463.3268	0.045969
466.2003	0.053250
469.0758	0.042656
471.9533	0.040862
474.8329	0.046201
477.7145	0.044724
480.5982	0.049810
483.4838	0.051034
486.3715	0.159343
489.2612	0.049937
492.1529	0.049283
495.0466	0.050739
497.9423	0.046138
500.8400	0.046645
503.7397	0.054474
506.6414	0.051604
509.5450	0.045758
512.4506	0.042930
515.3582	0.039701
518.2677	0.039828
521.1792	0.038583
524.0927	0.035248
527.0081	0.035945
529.9254	0.037738
532.8447	0.037886
535.7659	0.046244
538.6890	0.042191
541.6140	0.045674
544.5410	0.047953
547.4699	0.046054
550.4007	0.046708
553.3333	0.047658
556.2679	0.052469
559.2044	0.044049
562.1427	0.055741
565.0829	0.058590
568.0250	0.076697
570.9690	0.148622
573.9149	0.194271
576.8626	0.220145
579.8121	0.238274
582.7635	0.292175
585.7167	0.256403
588.6718	0.216093
591.6288	0.138534
594.5875	0.176543
597.5481	0.156156
600.5105	0.188446
603.4747	0.186293
606.4407	0.160124
609.4085	0.132878
612.3781	0.129374
615.3495	0.125639
618.3227	0.107531
621.2977	0.074080
624.2745	0.084802
627.2530	0.067770
630.2333	0.058210
633.2154	0.044555
636.1992	0.040482
639.1848	0.039131
642.1721	0.030878
645.1612	0.024940
648.1520	0.029245
651.1445	0.028239
654.1388	0.032159
657.1348	0.832987
660.1325	0.051669
663.1319	0.020271
666.1330	0.020305
669.1359	0.019314
672.1404	0.029803
675.1466	0.025371
678.1545	0.026743
681.1641	0.031428
684.1754	0.031196
687.1883	0.041368
690.2029	0.032821
693.2192	0.038540
696.2371	0.027207
699.2567	0.032315
702.2779	0.029043
705.3008	0.024020
708.3253	0.036683
711.3514	0.031196
714.3791	0.033792
717.4085	0.024949
720.4395	0.026680
723.4721	0.027925
726.5063	0.032441
729.5421	0.034699
732.5795	0.039807
735.6185	0.047890
738.6591	0.039068
741.7013	0.032821
744.7450	0.031259
747.7903	0.029402
750.8372	0.038540
753.8856	0.040862
756.9356	0.050781
759.9872	0.058315
763.0403	0.047826
766.0949	0.047869
769.1510	0.047088
772.2087	0.038350
775.2679	0.029381
778.3287	0.024970
781.3909	0.033370
784.4547	0.029866
787.5199	0.028009
790.5867	0.025012
793.6550	0.026047
796.7247	0.020791
799.7959	0.020813
802.8686	0.016972
805.9428	0.019040
809.0185	0.020897
812.0956	0.015051
815.1742	0.015663
818.2542	0.012054
821.3357	0.015199
824.4186	0.010893
827.5029	0.012392
830.5887	0.010197
833.6759	0.008192
836.7646	0.007728
839.8546	0.008994
842.9461	0.004794
846.0390	0.006778
849.1333	0.002916
852.2289	0.005955
855.3260	0.012919
858.4245	0.010408
861.5243	0.004815
864.6255	0.005660
867.7281	0.005849
870.8321	0.005871
873.9374	0.005786
877.0441	0.004182
880.1521	0.007538
883.2615	0.006103
886.3722	0.006694
889.4843	0.005533
892.5977	0.004858
895.7124	0.004773
898.8284	0.005322
901.9458	0.004414
905.0644	0.002599
908.1844	0.002853
911.3057	0.004499
914.4283	0.003254
917.5521	0.004393
920.6773	0.003486
923.8037	0.003190
926.9314	0.003254
930.0604	0.002156
933.1906	0.002114
936.3221	0.002853
939.4549	0.003190
942.5889	0.000362
945.7241	0.000658
948.8606	0.002325
951.9983	0.000890
955.1373	0.000341
958.2775	0.000616
961.4189	0.001481
964.5615	0.001375
967.7053	-0.000039
970.8504	-0.000208
973.9966	-0.000482
977.1440	0.001861
980.2926	0.001017
983.4424	-0.000123
986.5934	-0.000798
989.7456	-0.000018
992.8989	0.000362
996.0534	0.001396
999.2090	-0.001537
1002.37	-0.000018
1005.52	0.001776
1008.68	0.000320
1011.84	0.000172
1015	0.000953
1018.17	0.000299
1021.33	0.000953
1023.03	-0.000545