File: Auto_Polymerization/Spectra/pure_DMSO_spectrum_2025-06-19_14-37-37.txt
# Wavelength (nm)	Intensity (a.u.)
197.7802	0.000847
200.4334	0.000446
203.0892	0.001185
205.7475	0.000974
208.4084	0.001311
211.0718	0.001796
213.7376	0.000257
216.4060	0.002218
219.0769	0.000383
221.7503	0.000636
224.4262	0.000995
227.1046	0.000742
229.7855	0.001649
232.4688	0.001079
235.1546	0.003483
237.8429	0.001185
240.5337	-0.001388
243.2269	0.000278
245.9225	0.001902
248.6206	0.001796
251.3212	0.000700
254.0242	0.000995
256.7296	0.001290
259.4375	0.001649
262.1477	0.002028
264.8604	0.000425
267.5755	0.000974
270.2931	-0.000460
273.0130	0.000805
275.7353	-0.000460
278.4600	0.001206
281.1871	-0.000313
283.9166	0.000953
286.6484	0.000404
289.3827	0.002260
292.1193	0.001501
294.8582	0.002323
297.5995	0.000425
300.3432	0.001543
303.0892	0.001100
305.8376	0.001480
308.5883	0.002134
311.3413	0.001438
314.0967	-0.000271
316.8543	0.000784
319.6143	0.001796
322.3766	0.003294
325.1412	0.003146
327.9082	0.004643
330.6774	0.005487
333.4489	0.004643
336.2227	0.004875
338.9987	0.004559
341.7771	0.006373
344.5577	0.008313
347.3406	0.008461
350.1257	0.007828
352.9131	0.008292
355.7027	0.010570
358.4946	0.009305
361.2888	0.012131
364.0851	0.010211
366.8837	0.010380
369.6845	0.013649
372.4876	0.015547
375.2928	0.014683
378.1003	0.017509
380.9100	0.021769
383.7219	0.021769
386.5359	0.023478
389.3522	0.026008
392.1706	0.027379
394.9912	0.030965
397.8140	0.033179
400.6390	0.034845
403.4661	0.034023
406.2954	0.036132
409.1269	0.034635
411.9605	0.035162
414.7962	0.035415
417.6341	0.036153
420.4741	0.041700
423.3162	0.043387
426.1605	0.037650
429.0068	0.041594
431.8553	0.040456
434.7059	0.043936
437.5586	0.043999
440.4135	0.045328
443.2703	0.052330
446.1293	0.054165
448.9904	0.051528
451.8535	0.049398
454.7188	0.044653
457.5860	0.050221
460.4554	0.051127
463.3268	0.048365
466.2003	0.056653
469.0758	0.046277
471.9533	0.041004
474.8329	0.046256
477.7145	0.045328
480.5982	0.054312
483.4838	0.053237
486.3715	0.164722
489.2612	0.055261
492.1529	0.049630
495.0466	0.051739
497.9423	0.048786
500.8400	0.051950
503.7397	0.056717
506.6414	0.054418
509.5450	0.048997
512.4506	0.043345
515.3582	0.042206
518.2677	0.041869
521.1792	0.037271
524.0927	0.038262
527.0081	0.037672
529.9254	0.041152
532.8447	0.038979
535.7659	0.045349
538.6890	0.042628
541.6140	0.046804
544.5410	0.053194
547.4699	0.050706
550.4007	0.047226
553.3333	0.051528
556.2679	0.057961
559.2044	0.045770
562.1427	0.058783
565.0829	0.061399
568.0250	0.081224
570.9690	0.154556
573.9149	0.206060
576.8626	0.230019
579.8121	0.248600
582.7635	0.298395
585.7167	0.267455
588.6718	0.220950
591.6288	0.145930
594.5875	0.185328
597.5481	0.167612
600.5105	0.194777
603.4747	0.199564
606.4407	0.168350
609.4085	0.138802
612.3781	0.134837
615.3495	0.134879
618.3227	0.111890
621.2977	0.075445
624.2745	0.090188
627.2530	0.071881
630.2333	0.062306
633.2154	0.046593
636.1992	0.045011
639.1848	0.040477
642.1721	0.032984
645.1612	0.028689
648.1520	0.029358
651.1445	0.030242
654.1388	0.034269
657.1348	0.903030
660.1325	0.054627
663.1319	0.023055
666.1330	0.024236
669.1359	0.022676
672.1404	0.032420
675.1466	0.028054
678.1545	0.028139
681.1641	0.034171
684.1754	0.035225
687.1883	0.044821
690.2029	0.034086
693.2192	0.038515
696.2371	0.030480
699.2567	0.036765
702.2779	0.029341
705.3008	0.025228
708.3253	0.038663
711.3514	0.029889
714.3791	0.034803
717.4085	0.028750
720.4395	0.028645
723.4721	0.029805
726.5063	0.034276
729.5421	0.036912
732.5795	0.043767
735.6185	0.048913
738.6591	0.040941
741.7013	0.034318
744.7450	0.029910
747.7903	0.032357
750.8372	0.040350
753.8856	0.045011
756.9356	0.051697
759.9872	0.060323
763.0403	0.050178
766.0949	0.050495
769.1510	0.050495
772.2087	0.042459
775.2679	0.029552
778.3287	0.025249
781.3909	0.037714
784.4547	0.030986
787.5199	0.028835
790.5867	0.027485
793.6550	0.023688
796.7247	0.023014
799.7959	0.021537
802.8686	0.016370
805.9428	0.019597
809.0185	0.024300
812.0956	0.015822
815.1742	0.017256
818.2542	0.014915
821.3357	0.016855
824.4186	0.010865
827.5029	0.014894
830.5887	0.011118
833.6759	0.011857
836.7646	0.009199
839.8546	0.008819
842.9461	0.005825
846.0390	0.006900
849.1333	0.006963
852.2289	0.006605
855.3260	0.014345
858.4245	0.010528
861.5243	0.008292
864.6255	0.007385
867.7281	0.005023
870.8321	0.007111
873.9374	0.006183
877.0441	0.005234
880.1521	0.008651
883.2615	0.006415
886.3722	0.006985
889.4843	0.005466
892.5977	0.006521
895.7124	0.006985
898.8284	0.006879
901.9458	0.005719
905.0644	0.005466
908.1844	0.004538
911.3057	0.005424
914.4283	0.002830
917.5521	0.004222
920.6773	0.003863
923.8037	0.004622
926.9314	0.002239
930.0604	0.001712
933.1906	0.002134
936.3221	0.000594
939.4549	0.002872
942.5889	0.001775
945.7241	0.003019
948.8606	0.003273
951.9983	0.001733
955.1373	0.000615
958.2775	0.001564
961.4189	0.000763
964.5615	0.002513
967.7053	0.002302
970.8504	0.000278
973.9966	0.001838
977.1440	0.001628
980.2926	0.001543
983.4424	0.000932
986.5934	0.001396
989.7456	0.000531
992.8989	0.000341
996.0534	0.001121
999.2090	0.000383
1002.37	0.000932
1005.52	0.001206
1008.68	0.000847
1011.84	0.000721
1015	0.000130
1018.17	0.001628
1021.33	0.000362
1023.03	0.001522