File: Auto_Polymerization/Spectra/spectrum_2025-06-19_10-21-45.txt
# Wavelength (nm)	Intensity (a.u.)
197.7802	0.000237
200.4334	-0.000480
203.0892	0.000554
205.7475	0.000259
208.4084	0.000702
211.0718	0.001187
213.7376	0.000765
216.4060	-0.000881
219.0769	0.000069
221.7503	-0.000375
224.4262	0.001884
227.1046	-0.001113
229.7855	0.001652
232.4688	0.000533
235.1546	0.000301
237.8429	-0.000459
240.5337	0.001293
243.2269	-0.001303
245.9225	0.000364
248.6206	-0.000248
251.3212	0.000069
254.0242	-0.000016
256.7296	0.000681
259.4375	-0.001029
262.1477	0.000660
264.8604	0.000976
267.5755	0.000871
270.2931	0.000259
273.0130	-0.000016
275.7353	-0.000100
278.4600	0.000533
281.1871	-0.001536
283.9166	0.000322
286.6484	0.000850
289.3827	0.001588
292.1193	-0.000142
294.8582	0.000786
297.5995	0.000364
300.3432	0.001546
303.0892	0.000491
305.8376	0.000871
308.5883	0.000554
311.3413	0.000195
314.0967	0.000427
316.8543	0.000259
319.6143	0.001082
322.3766	-0.000607
325.1412	0.000280
327.9082	-0.000480
330.6774	0.000280
333.4489	0.001377
336.2227	-0.000565
338.9987	0.000913
341.7771	0.000997
344.5577	0.001778
347.3406	0.000195
350.1257	0.000660
352.9131	0.000005
355.7027	0.000301
358.4946	0.000280
361.2888	0.000554
364.0851	-0.000565
366.8837	0.000997
369.6845	-0.000248
372.4876	0.000554
375.2928	0.000807
378.1003	-0.000987
380.9100	0.000807
383.7219	0.001230
386.5359	-0.000142
389.3522	0.002116
392.1706	0.004375
394.9912	0.010433
397.8140	0.014296
400.6390	0.019151
403.4661	0.019953
406.2954	0.025357
409.1269	0.027088
411.9605	0.027045
414.7962	0.030254
417.6341	0.027172
420.4741	0.032111
423.3162	0.032006
426.1605	0.029874
429.0068	0.030402
431.8553	0.030296
434.7059	0.029874
437.5586	0.032027
440.4135	0.028291
443.2703	0.033631
446.1293	0.030000
448.9904	0.028058
451.8535	0.023858
454.7188	0.022591
457.5860	0.019932
460.4554	0.020438
463.3268	0.016385
466.2003	0.017926
469.0758	0.012058
471.9533	0.009821
474.8329	0.008976
477.7145	0.008681
480.5982	0.007224
483.4838	0.005430
486.3715	0.018095
489.2612	0.005325
492.1529	0.006085
495.0466	0.003193
497.9423	0.003910
500.8400	0.002475
503.7397	0.003277
506.6414	0.003953
509.5450	0.002855
512.4506	0.001610
515.3582	0.003150
518.2677	0.003003
521.1792	0.002454
524.0927	0.002665
527.0081	0.004311
529.9254	0.005599
532.8447	0.005008
535.7659	0.007351
538.6890	0.009715
541.6140	0.010285
544.5410	0.012670
547.4699	0.016449
550.4007	0.017926
553.3333	0.022085
556.2679	0.026475
559.2044	0.024829
562.1427	0.032745
565.0829	0.039626
568.0250	0.056618
570.9690	0.112239
573.9149	0.154752
576.8626	0.182404
579.8121	0.210141
582.7635	0.266817
585.7167	0.240558
588.6718	0.203618
591.6288	0.130435
594.5875	0.175586
597.5481	0.153316
600.5105	0.183945
603.4747	0.188694
606.4407	0.168029
609.4085	0.133707
612.3781	0.132356
615.3495	0.130836
618.3227	0.107870
621.2977	0.076946
624.2745	0.086086
627.2530	0.072175
630.2333	0.059996
633.2154	0.045156
636.1992	0.044418
639.1848	0.041209
642.1721	0.029757
645.1612	0.026763
648.1520	0.029692
651.1445	0.031334
654.1388	0.032785
657.1348	0.885218
660.1325	0.061320
663.1319	0.022276
666.1330	0.022725
669.1359	0.021388
672.1404	0.032470
675.1466	0.026243
678.1545	0.029663
681.1641	0.034687
684.1754	0.034982
687.1883	0.045199
690.2029	0.035446
693.2192	0.040048
696.2371	0.030634
699.2567	0.037684
702.2779	0.029198
705.3008	0.024175
708.3253	0.035995
711.3514	0.031119
714.3791	0.035869
717.4085	0.027341
720.4395	0.028396
723.4721	0.027531
726.5063	0.035552
729.5421	0.036333
732.5795	0.042011
735.6185	0.049378
738.6591	0.041230
741.7013	0.035573
744.7450	0.030781
747.7903	0.032280
750.8372	0.039985
753.8856	0.043383
756.9356	0.051025
759.9872	0.061178
763.0403	0.049167
766.0949	0.049568
769.1510	0.047225
772.2087	0.040956
775.2679	0.031605
778.3287	0.026095
781.3909	0.035067
784.4547	0.029958
787.5199	0.028924
790.5867	0.026623
793.6550	0.021620
796.7247	0.020713
799.7959	0.020354
802.8686	0.017483
805.9428	0.020079
809.0185	0.023436
812.0956	0.017462
815.1742	0.016428
818.2542	0.015668
821.3357	0.015794
824.4186	0.011763
827.5029	0.013916
830.5887	0.010454
833.6759	0.009694
836.7646	0.008385
839.8546	0.006148
842.9461	0.006253
846.0390	0.006422
849.1333	0.003488
852.2289	0.005726
855.3260	0.013071
858.4245	0.010517
861.5243	0.006950
864.6255	0.006739
867.7281	0.004691
870.8321	0.006971
873.9374	0.005979
877.0441	0.004248
880.1521	0.006971
883.2615	0.005683
886.3722	0.006992
889.4843	0.004185
892.5977	0.004058
895.7124	0.006021
898.8284	0.005008
901.9458	0.003699
905.0644	0.006021
908.1844	0.003235
911.3057	0.003741
914.4283	0.002496
917.5521	0.005092
920.6773	0.004016
923.8037	0.003847
926.9314	0.001610
930.0604	0.002095
933.1906	0.001736
936.3221	0.002264
939.4549	0.002475
942.5889	0.001335
945.7241	0.001546
948.8606	0.000047
951.9983	0.002876
955.1373	0.000892
958.2775	0.001018
961.4189	0.000807
964.5615	0.001293
967.7053	0.000533
970.8504	0.000195
973.9966	0.000892
977.1440	0.000343
980.2926	0.000871
983.4424	0.002602
986.5934	-0.000565
989.7456	0.000639
992.8989	0.000280
996.0534	-0.000311
999.2090	0.000026
1002.37	0.000575
1005.52	0.000575
1008.68	0.001483
1011.84	-0.000459
1015	-0.000818
1018.17	-0.000501
1021.33	0.000639
1023.03	0.000174