File: Auto_Polymerization/Spectra/spectrum_2025-06-19_12-29-59.txt
# Wavelength (nm)	Intensity (a.u.)
197.7802	0.000825
200.4334	0.000487
203.0892	0.000783
205.7475	0.000065
208.4084	-0.000040
211.0718	0.001585
213.7376	0.001395
216.4060	-0.000315
219.0769	-0.000864
221.7503	-0.000378
224.4262	0.000952
227.1046	0.000023
229.7855	0.001079
232.4688	0.000044
235.1546	0.000318
237.8429	0.000255
240.5337	0.001374
243.2269	0.000635
245.9225	-0.000336
248.6206	0.000635
251.3212	0.001986
254.0242	0.000128
256.7296	0.000910
259.4375	-0.001202
262.1477	0.000318
264.8604	0.000213
267.5755	-0.000188
270.2931	-0.000463
273.0130	-0.000758
275.7353	-0.000547
278.4600	0.001269
281.1871	0.001100
283.9166	0.000234
286.6484	0.000593
289.3827	-0.000062
292.1193	-0.000568
294.8582	0.000762
297.5995	-0.000505
300.3432	0.001986
303.0892	0.000044
305.8376	0.001480
308.5883	-0.000758
311.3413	0.000867
314.0967	0.001015
316.8543	0.000508
319.6143	0.000171
322.3766	0.000150
325.1412	-0.000273
327.9082	0.001353
330.6774	0.000593
333.4489	0.000255
336.2227	0.000044
338.9987	0.000171
341.7771	0.001649
344.5577	0.000635
347.3406	-0.000885
350.1257	0.000656
352.9131	0.001015
355.7027	0.000994
358.4946	-0.000230
361.2888	-0.000230
364.0851	0.000614
366.8837	0.000445
369.6845	-0.000230
372.4876	0.000931
375.2928	0.000741
378.1003	-0.000125
380.9100	-0.000167
383.7219	-0.000357
386.5359	-0.000547
389.3522	-0.000209
392.1706	-0.000420
394.9912	0.002219
397.8140	0.003971
400.6390	0.005449
403.4661	0.005280
406.2954	0.008869
409.1269	0.009840
411.9605	0.009946
414.7962	0.012416
417.6341	0.014569
420.4741	0.014253
423.3162	0.017884
426.1605	0.016871
429.0068	0.019024
431.8553	0.021917
434.7059	0.020692
437.5586	0.020734
440.4135	0.020819
443.2703	0.021853
446.1293	0.024176
448.9904	0.021874
451.8535	0.020291
454.7188	0.016807
457.5860	0.016807
460.4554	0.017145
463.3268	0.013366
466.2003	0.014337
469.0758	0.011297
471.9533	0.008637
474.8329	0.007307
477.7145	0.007307
480.5982	0.007687
483.4838	0.006652
486.3715	0.018011
489.2612	0.005597
492.1529	0.003063
495.0466	0.004055
497.9423	0.004478
500.8400	0.004984
503.7397	0.004499
506.6414	0.003823
509.5450	0.003232
512.4506	0.004267
515.3582	0.000994
518.2677	0.004478
521.1792	0.003084
524.0927	0.002831
527.0081	0.003802
529.9254	0.005575
532.8447	0.004794
535.7659	0.008447
538.6890	0.008616
541.6140	0.009524
544.5410	0.014337
547.4699	0.014189
550.4007	0.017779
553.3333	0.021473
556.2679	0.025506
559.2044	0.024345
562.1427	0.033887
565.0829	0.036484
568.0250	0.053797
570.9690	0.102440
573.9149	0.141815
576.8626	0.164342
579.8121	0.197193
582.7635	0.277527
585.7167	0.230657
588.6718	0.198587
591.6288	0.125242
594.5875	0.167784
597.5481	0.145130
600.5105	0.182457
603.4747	0.178614
606.4407	0.170359
609.4085	0.136790
612.3781	0.131217
615.3495	0.125854
618.3227	0.112236
621.2977	0.082468
624.2745	0.085719
627.2530	0.071510
630.2333	0.063888
633.2154	0.044338
636.1992	0.043114
639.1848	0.040897
642.1721	0.031335
645.1612	0.028672
648.1520	0.029079
651.1445	0.029270
654.1388	0.032340
657.1348	1.000000
660.1325	0.100591
663.1319	0.023520
666.1330	0.025226
669.1359	0.022170
672.1404	0.030932
675.1466	0.025084
678.1545	0.029243
681.1641	0.033001
684.1754	0.031523
687.1883	0.042501
690.2029	0.034816
693.2192	0.040327
696.2371	0.031818
699.2567	0.037920
702.2779	0.029222
705.3008	0.026941
708.3253	0.037371
711.3514	0.032452
714.3791	0.034458
717.4085	0.026498
720.4395	0.029327
723.4721	0.027153
726.5063	0.033296
729.5421	0.033719
732.5795	0.039567
735.6185	0.045626
738.6591	0.040432
741.7013	0.033423
744.7450	0.031396
747.7903	0.032431
750.8372	0.040073
753.8856	0.041192
756.9356	0.049363
759.9872	0.059075
763.0403	0.048920
766.0949	0.053923
769.1510	0.048328
772.2087	0.040538
775.2679	0.031438
778.3287	0.025421
781.3909	0.034310
784.4547	0.030826
787.5199	0.030108
790.5867	0.025485
793.6550	0.023395
796.7247	0.023437
799.7959	0.021959
802.8686	0.017800
805.9428	0.018327
809.0185	0.024281
812.0956	0.016512
815.1742	0.017926
818.2542	0.014591
821.3357	0.015414
824.4186	0.011719
827.5029	0.014063
830.5887	0.010811
833.6759	0.009355
836.7646	0.010452
839.8546	0.006779
842.9461	0.005385
846.0390	0.005385
849.1333	0.004372
852.2289	0.006589
855.3260	0.012585
858.4245	0.009777
861.5243	0.007623
864.6255	0.008088
867.7281	0.006357
870.8321	0.004731
873.9374	0.004900
877.0441	0.004562
880.1521	0.008573
883.2615	0.006293
886.3722	0.005660
889.4843	0.005407
892.5977	0.003612
895.7124	0.005111
898.8284	0.004963
901.9458	0.005744
905.0644	0.005280
908.1844	0.004055
911.3057	0.004478
914.4283	0.001480
917.5521	0.004140
920.6773	0.003760
923.8037	0.002746
926.9314	0.003105
930.0604	0.001627
933.1906	0.002050
936.3221	0.000720
939.4549	0.001585
942.5889	0.001944
945.7241	0.002620
948.8606	-0.000568
951.9983	0.000361
955.1373	0.001712
958.2775	0.001142
961.4189	0.002620
964.5615	-0.000252
967.7053	0.000804
970.8504	0.000741
973.9966	0.001459
977.1440	0.000382
980.2926	0.001100
983.4424	0.000297
986.5934	0.001923
989.7456	-0.001476
992.8989	0.001480
996.0534	0.000572
999.2090	0.000171
1002.37	0.000255
1005.52	0.000150
1008.68	0.000931
1011.84	-0.000716
1015	0.001163
1018.17	-0.000146
1021.33	0.001311
1023.03	-0.000484