File: Auto_Polymerization/Spectra/spectrum_2025-06-19_10-37-05.txt
# Wavelength (nm)	Intensity (a.u.)
197.7802	0.000288
200.4334	-0.000894
203.0892	0.000647
205.7475	0.000267
208.4084	0.000795
211.0718	-0.000767
213.7376	-0.000239
216.4060	0.000774
219.0769	0.000162
221.7503	0.000056
224.4262	0.001618
227.1046	0.000584
229.7855	0.000584
232.4688	0.000500
235.1546	0.000816
237.8429	0.000099
240.5337	-0.000007
243.2269	-0.000218
245.9225	0.000563
248.6206	-0.000915
251.3212	0.001006
254.0242	-0.000345
256.7296	-0.000598
259.4375	-0.000007
262.1477	0.000985
264.8604	0.000288
267.5755	-0.000070
270.2931	-0.000197
273.0130	0.000394
275.7353	-0.000197
278.4600	-0.000324
281.1871	-0.000661
283.9166	0.000880
286.6484	0.000415
289.3827	0.001281
292.1193	0.000816
294.8582	0.000331
297.5995	0.001576
300.3432	0.000352
303.0892	-0.000197
305.8376	0.002167
308.5883	0.000858
311.3413	0.000183
314.0967	-0.001231
316.8543	0.000331
319.6143	-0.000493
322.3766	0.000985
325.1412	-0.000007
327.9082	-0.000324
330.6774	0.000141
333.4489	-0.000957
336.2227	0.001281
338.9987	0.000837
341.7771	0.000542
344.5577	0.000310
347.3406	0.000457
350.1257	-0.000556
352.9131	0.000500
355.7027	0.001450
358.4946	-0.000155
361.2888	0.000436
364.0851	0.000837
366.8837	-0.000471
369.6845	0.000922
372.4876	0.000352
375.2928	0.000331
378.1003	-0.000704
380.9100	0.001323
383.7219	0.001618
386.5359	0.001471
389.3522	0.002062
392.1706	0.005587
394.9912	0.009070
397.8140	0.013946
400.6390	0.017493
403.4661	0.020364
406.2954	0.024839
409.1269	0.025705
411.9605	0.028871
414.7962	0.030011
417.6341	0.028449
420.4741	0.032185
423.3162	0.034972
426.1605	0.030222
429.0068	0.031087
431.8553	0.030475
434.7059	0.030813
437.5586	0.030222
440.4135	0.027393
443.2703	0.031700
446.1293	0.032840
448.9904	0.028027
451.8535	0.024881
454.7188	0.020068
457.5860	0.021504
460.4554	0.018063
463.3268	0.015509
466.2003	0.017620
469.0758	0.013018
471.9533	0.010717
474.8329	0.011012
477.7145	0.008732
480.5982	0.008205
483.4838	0.007065
486.3715	0.017535
489.2612	0.004806
492.1529	0.003159
495.0466	0.003940
497.9423	0.004194
500.8400	0.003075
503.7397	0.002505
506.6414	0.004088
509.5450	0.004743
512.4506	0.003286
515.3582	0.002843
518.2677	-0.000239
521.1792	0.003729
524.0927	0.003814
527.0081	0.003645
529.9254	0.005798
532.8447	0.004637
535.7659	0.009112
538.6890	0.010801
541.6140	0.012131
544.5410	0.013630
547.4699	0.016290
550.4007	0.018443
553.3333	0.021968
556.2679	0.024375
559.2044	0.024818
562.1427	0.034212
565.0829	0.038223
568.0250	0.057263
570.9690	0.112212
573.9149	0.155867
576.8626	0.186898
579.8121	0.209084
582.7635	0.265574
585.7167	0.239292
588.6718	0.201548
591.6288	0.134419
594.5875	0.174929
597.5481	0.155043
600.5105	0.189157
603.4747	0.194645
606.4407	0.169166
609.4085	0.132055
612.3781	0.132878
615.3495	0.130472
618.3227	0.109932
621.2977	0.075354
624.2745	0.089941
627.2530	0.071238
630.2333	0.062900
633.2154	0.045759
636.1992	0.044049
639.1848	0.041769
642.1721	0.030193
645.1612	0.025339
648.1520	0.029878
651.1445	0.028405
654.1388	0.032092
657.1348	0.869676
660.1325	0.063349
663.1319	0.022581
666.1330	0.022945
669.1359	0.021989
672.1404	0.030349
675.1466	0.026042
678.1545	0.027710
681.1641	0.030982
684.1754	0.032439
687.1883	0.045252
690.2029	0.036259
693.2192	0.039215
696.2371	0.029758
699.2567	0.036323
702.2779	0.029948
705.3008	0.023995
708.3253	0.034803
711.3514	0.031362
714.3791	0.033410
717.4085	0.027626
720.4395	0.028913
723.4721	0.029272
726.5063	0.032481
729.5421	0.036829
732.5795	0.043943
735.6185	0.049601
738.6591	0.041980
741.7013	0.033600
744.7450	0.029990
747.7903	0.030708
750.8372	0.039278
753.8856	0.042592
756.9356	0.051859
759.9872	0.060641
763.0403	0.047891
766.0949	0.048735
769.1510	0.049917
772.2087	0.042255
775.2679	0.032460
778.3287	0.025177
781.3909	0.035373
784.4547	0.031256
787.5199	0.030032
790.5867	0.026422
793.6550	0.024501
796.7247	0.020089
799.7959	0.022031
802.8686	0.016501
805.9428	0.019266
809.0185	0.021884
812.0956	0.016290
815.1742	0.015530
818.2542	0.015509
821.3357	0.015319
824.4186	0.009070
827.5029	0.012891
830.5887	0.008458
833.6759	0.009345
836.7646	0.007635
839.8546	0.008669
842.9461	0.005566
846.0390	0.005967
849.1333	0.005376
852.2289	0.006051
855.3260	0.012427
858.4245	0.009028
861.5243	0.006558
864.6255	0.006453
867.7281	0.004912
870.8321	0.006073
873.9374	0.003624
877.0441	0.005144
880.1521	0.008669
883.2615	0.007128
886.3722	0.008120
889.4843	0.004954
892.5977	0.003940
895.7124	0.004700
898.8284	0.005671
901.9458	0.004194
905.0644	0.004722
908.1844	0.002336
911.3057	0.004363
914.4283	0.001618
917.5521	0.003708
920.6773	0.004553
923.8037	0.003265
926.9314	0.002611
930.0604	0.003096
933.1906	0.003835
936.3221	0.002357
939.4549	0.002188
942.5889	0.000563
945.7241	0.001154
948.8606	0.001154
951.9983	0.000795
955.1373	0.000415
958.2775	0.002357
961.4189	0.002357
964.5615	0.000394
967.7053	0.000310
970.8504	0.001450
973.9966	0.000605
977.1440	0.001048
980.2926	0.000647
983.4424	0.002083
986.5934	-0.000239
989.7456	0.000711
992.8989	0.000373
996.0534	0.001281
999.2090	-0.001400
1002.37	0.000922
1005.52	0.001070
1008.68	-0.000661
1011.84	0.000647
1015	-0.000619
1018.17	0.001112
1021.33	0.000858
1023.03	-0.000598