File: Auto_Polymerization/Spectra/spectrum_2025-06-19_11-13-16.txt
# Wavelength (nm)	Intensity (a.u.)
197.7802	0.000922
200.4334	-0.000282
203.0892	-0.000176
205.7475	-0.000429
208.4084	0.000099
211.0718	-0.000472
213.7376	0.000373
216.4060	0.000753
219.0769	-0.000113
221.7503	0.000373
224.4262	-0.000704
227.1046	0.000880
229.7855	0.000690
232.4688	-0.000788
235.1546	-0.000282
237.8429	-0.000556
240.5337	-0.000070
243.2269	-0.000915
245.9225	-0.000134
248.6206	-0.000852
251.3212	0.000795
254.0242	0.001028
256.7296	0.000394
259.4375	-0.000366
262.1477	-0.001105
264.8604	-0.000092
267.5755	0.000458
270.2931	-0.000113
273.0130	-0.000197
275.7353	-0.000092
278.4600	0.000943
281.1871	-0.000429
283.9166	0.000943
286.6484	-0.000007
289.3827	0.000436
292.1193	-0.000873
294.8582	0.000711
297.5995	0.000542
300.3432	0.000521
303.0892	-0.000598
305.8376	0.000542
308.5883	0.000817
311.3413	-0.000451
314.0967	-0.000704
316.8543	0.000732
319.6143	0.001091
322.3766	0.000035
325.1412	0.000648
327.9082	-0.000725
330.6774	-0.000408
333.4489	0.000605
336.2227	0.000648
338.9987	0.000732
341.7771	0.001450
344.5577	-0.000155
347.3406	-0.001506
350.1257	-0.000134
352.9131	0.000246
355.7027	0.001788
358.4946	0.000458
361.2888	-0.000746
364.0851	0.001133
366.8837	-0.000113
369.6845	0.001408
372.4876	-0.000662
375.2928	0.000479
378.1003	0.000838
380.9100	-0.001168
383.7219	-0.000451
386.5359	-0.000641
389.3522	0.002780
392.1706	0.003435
394.9912	0.007067
397.8140	0.010171
400.6390	0.012938
403.4661	0.014374
406.2954	0.015197
409.1269	0.018872
411.9605	0.019632
414.7962	0.024278
417.6341	0.023581
420.4741	0.025629
423.3162	0.028522
426.1605	0.024954
429.0068	0.027150
431.8553	0.028670
434.7059	0.027699
437.5586	0.027614
440.4135	0.028184
443.2703	0.030803
446.1293	0.028227
448.9904	0.026009
451.8535	0.024383
454.7188	0.021448
457.5860	0.021068
460.4554	0.019125
463.3268	0.015620
466.2003	0.015430
469.0758	0.013043
471.9533	0.009411
474.8329	0.009263
477.7145	0.007152
480.5982	0.009453
483.4838	0.007490
486.3715	0.017584
489.2612	0.006117
492.1529	0.004639
495.0466	0.003055
497.9423	0.004047
500.8400	0.003203
503.7397	0.002633
506.6414	0.002675
509.5450	0.003604
512.4506	0.003731
515.3582	0.003710
518.2677	0.001239
521.1792	0.002802
524.0927	0.004195
527.0081	0.003942
529.9254	0.004554
532.8447	0.005441
535.7659	0.007870
538.6890	0.009369
541.6140	0.012389
544.5410	0.015873
547.4699	0.017330
550.4007	0.019864
553.3333	0.023285
556.2679	0.026622
559.2044	0.025714
562.1427	0.033612
565.0829	0.040369
568.0250	0.057854
570.9690	0.110183
573.9149	0.154107
576.8626	0.184473
579.8121	0.208484
582.7635	0.261762
585.7167	0.238048
588.6718	0.199973
591.6288	0.134827
594.5875	0.172859
597.5481	0.153431
600.5105	0.185571
603.4747	0.189098
606.4407	0.163567
609.4085	0.135587
612.3781	0.131912
615.3495	0.128555
618.3227	0.108599
621.2977	0.077282
624.2745	0.086827
627.2530	0.072024
630.2333	0.061719
633.2154	0.044360
636.1992	0.043896
639.1848	0.041045
642.1721	0.030609
645.1612	0.026582
648.1520	0.029801
651.1445	0.028565
654.1388	0.033960
657.1348	0.873831
660.1325	0.061694
663.1319	0.021326
666.1330	0.023605
669.1359	0.021828
672.1404	0.032387
675.1466	0.026495
678.1545	0.027762
681.1641	0.035449
684.1754	0.033675
687.1883	0.042523
690.2029	0.033379
693.2192	0.038722
696.2371	0.029494
699.2567	0.034330
702.2779	0.031310
705.3008	0.024552
708.3253	0.039144
711.3514	0.032535
714.3791	0.033949
717.4085	0.029578
720.4395	0.027171
723.4721	0.028058
726.5063	0.034921
729.5421	0.036209
732.5795	0.040855
735.6185	0.047507
738.6591	0.042396
741.7013	0.035744
744.7450	0.031141
747.7903	0.032281
750.8372	0.040242
753.8856	0.043368
756.9356	0.051899
759.9872	0.060642
763.0403	0.049555
766.0949	0.048415
769.1510	0.047084
772.2087	0.041531
775.2679	0.030972
778.3287	0.025904
781.3909	0.033823
784.4547	0.028818
787.5199	0.029093
790.5867	0.025608
793.6550	0.023032
796.7247	0.022757
799.7959	0.022314
802.8686	0.016845
805.9428	0.021005
809.0185	0.022145
812.0956	0.017394
815.1742	0.018492
818.2542	0.014416
821.3357	0.015028
824.4186	0.011101
827.5029	0.013318
830.5887	0.010594
833.6759	0.010911
836.7646	0.007912
839.8546	0.009580
842.9461	0.005526
846.0390	0.005357
849.1333	0.004913
852.2289	0.005695
855.3260	0.014437
858.4245	0.009939
861.5243	0.006835
864.6255	0.007025
867.7281	0.006265
870.8321	0.004744
873.9374	0.004956
877.0441	0.003836
880.1521	0.009559
883.2615	0.006919
886.3722	0.005864
889.4843	0.004618
892.5977	0.005293
895.7124	0.003456
898.8284	0.004618
901.9458	0.004280
905.0644	0.005800
908.1844	0.004428
911.3057	0.003182
914.4283	0.003646
917.5521	0.004765
920.6773	0.003646
923.8037	0.003520
926.9314	0.002633
930.0604	0.003435
933.1906	0.002041
936.3221	0.001197
939.4549	0.001830
942.5889	0.000711
945.7241	0.000753
948.8606	0.001366
951.9983	0.000204
955.1373	-0.000260
958.2775	0.001725
961.4189	0.001323
964.5615	0.000500
967.7053	-0.000429
970.8504	0.001471
973.9966	-0.000429
977.1440	0.000795
980.2926	-0.000894
983.4424	0.000458
986.5934	-0.000324
989.7456	0.001682
992.8989	0.000077
996.0534	0.000859
999.2090	-0.000176
1002.37	0.000436
1005.52	0.000458
1008.68	-0.000218
1011.84	0.000394
1015	-0.000619
1018.17	-0.000493
1021.33	-0.001042
1023.03	-0.000831