File: Auto_Polymerization/Spectra/spectrum_2025-06-19_10-47-19.txt
# Wavelength (nm)	Intensity (a.u.)
197.7802	0.000547
200.4334	0.000652
203.0892	0.002256
205.7475	-0.000529
208.4084	0.001454
211.0718	0.000315
213.7376	0.000040
216.4060	0.000589
219.0769	0.001180
221.7503	0.000505
224.4262	0.000188
227.1046	0.000294
229.7855	0.000737
232.4688	0.000315
235.1546	0.001834
237.8429	0.001982
240.5337	0.001307
243.2269	0.000737
245.9225	0.000040
248.6206	0.000463
251.3212	0.000568
254.0242	0.000547
256.7296	0.001940
259.4375	0.001011
262.1477	0.000589
264.8604	-0.000276
267.5755	0.001328
270.2931	-0.000888
273.0130	0.000484
275.7353	-0.000403
278.4600	0.001391
281.1871	-0.001057
283.9166	0.000927
286.6484	-0.000318
289.3827	0.001644
292.1193	0.001771
294.8582	-0.000677
297.5995	-0.000171
300.3432	0.001644
303.0892	0.000906
305.8376	0.001011
308.5883	-0.000361
311.3413	0.000547
314.0967	0.000251
316.8543	-0.000361
319.6143	0.001011
322.3766	0.000167
325.1412	-0.000318
327.9082	0.001497
330.6774	0.000589
333.4489	-0.000171
336.2227	0.002763
338.9987	0.001729
341.7771	0.000969
344.5577	0.000441
347.3406	0.000441
350.1257	0.001602
352.9131	0.000631
355.7027	0.001433
358.4946	0.001075
361.2888	0.001560
364.0851	0.001011
366.8837	0.002700
369.6845	0.000547
372.4876	0.000568
375.2928	0.000652
378.1003	-0.000002
380.9100	0.000864
383.7219	0.001581
386.5359	0.000378
389.3522	0.002636
392.1706	0.006287
394.9912	0.008567
397.8140	0.013505
400.6390	0.018950
403.4661	0.021525
406.2954	0.026759
409.1269	0.026991
411.9605	0.026379
414.7962	0.028869
417.6341	0.029692
420.4741	0.030009
423.3162	0.033386
426.1605	0.030009
429.0068	0.029798
431.8553	0.031972
434.7059	0.031655
437.5586	0.030262
440.4135	0.030178
443.2703	0.033871
446.1293	0.031571
448.9904	0.027413
451.8535	0.025345
454.7188	0.021989
457.5860	0.021398
460.4554	0.020976
463.3268	0.016059
466.2003	0.017346
469.0758	0.012682
471.9533	0.010804
474.8329	0.009538
477.7145	0.008736
480.5982	0.008419
483.4838	0.006836
486.3715	0.017452
489.2612	0.005549
492.1529	0.004325
495.0466	0.005211
497.9423	0.003185
500.8400	0.003037
503.7397	0.003248
506.6414	0.002383
509.5450	0.004325
512.4506	0.002763
515.3582	0.004304
518.2677	0.002742
521.1792	0.004599
524.0927	0.004515
527.0081	0.005021
529.9254	0.005781
532.8447	0.006435
535.7659	0.009601
538.6890	0.009073
541.6140	0.010276
544.5410	0.014877
547.4699	0.015911
550.4007	0.018127
553.3333	0.022348
556.2679	0.025957
559.2044	0.027287
562.1427	0.033175
565.0829	0.039633
568.0250	0.058057
570.9690	0.112824
573.9149	0.157544
576.8626	0.186057
579.8121	0.210792
582.7635	0.265875
585.7167	0.236919
588.6718	0.200872
591.6288	0.132472
594.5875	0.171642
597.5481	0.155835
600.5105	0.185930
603.4747	0.190341
606.4407	0.168202
609.4085	0.135279
612.3781	0.129623
615.3495	0.127808
618.3227	0.110502
621.2977	0.073632
624.2745	0.089060
627.2530	0.069433
630.2333	0.062426
633.2154	0.043453
636.1992	0.043727
639.1848	0.041216
642.1721	0.032426
645.1612	0.027401
648.1520	0.030096
651.1445	0.028063
654.1388	0.031876
657.1348	0.883276
660.1325	0.061514
663.1319	0.020750
666.1330	0.023260
669.1359	0.020892
672.1404	0.031634
675.1466	0.025957
678.1545	0.030157
681.1641	0.034272
684.1754	0.033470
687.1883	0.044571
690.2029	0.035855
693.2192	0.037776
696.2371	0.029946
699.2567	0.036974
702.2779	0.029228
705.3008	0.025134
708.3253	0.037121
711.3514	0.033154
714.3791	0.035201
717.4085	0.027498
720.4395	0.028701
723.4721	0.027941
726.5063	0.032542
729.5421	0.037417
732.5795	0.042081
735.6185	0.046555
738.6591	0.042334
741.7013	0.035412
744.7450	0.031951
747.7903	0.030537
750.8372	0.042292
753.8856	0.043896
756.9356	0.052380
759.9872	0.061835
763.0403	0.049425
766.0949	0.049615
769.1510	0.049974
772.2087	0.041659
775.2679	0.030579
778.3287	0.026020
781.3909	0.035813
784.4547	0.032689
787.5199	0.031782
790.5867	0.023846
793.6550	0.022855
796.7247	0.023572
799.7959	0.023762
802.8686	0.016966
805.9428	0.019541
809.0185	0.022200
812.0956	0.017515
815.1742	0.015341
818.2542	0.014919
821.3357	0.015109
824.4186	0.010107
827.5029	0.014476
830.5887	0.010846
833.6759	0.010677
836.7646	0.007533
839.8546	0.007490
842.9461	0.005992
846.0390	0.005190
849.1333	0.004029
852.2289	0.006013
855.3260	0.012872
858.4245	0.010656
861.5243	0.007089
864.6255	0.007997
867.7281	0.006119
870.8321	0.005781
873.9374	0.005021
877.0441	0.005950
880.1521	0.006794
883.2615	0.007469
886.3722	0.007427
889.4843	0.004472
892.5977	0.005359
895.7124	0.003269
898.8284	0.004662
901.9458	0.004071
905.0644	0.004325
908.1844	0.003776
911.3057	0.004873
914.4283	0.003101
917.5521	0.004409
920.6773	0.004472
923.8037	0.002172
926.9314	0.003797
930.0604	0.003523
933.1906	0.001666
936.3221	0.000927
939.4549	0.001771
942.5889	-0.000023
945.7241	0.003016
948.8606	0.000652
951.9983	0.001729
955.1373	0.000399
958.2775	0.001096
961.4189	0.001328
964.5615	0.001075
967.7053	0.000399
970.8504	0.000209
973.9966	0.000463
977.1440	0.002193
980.2926	0.002003
983.4424	0.000695
986.5934	0.000990
989.7456	0.001560
992.8989	0.000631
996.0534	0.000505
999.2090	0.001180
1002.37	0.002594
1005.52	0.000568
1008.68	0.000019
1011.84	0.002024
1015	-0.000424
1018.17	0.002256
1021.33	0.001560
1023.03	0.001138