File: Auto_Polymerization/Spectra/spectrum_2025-06-19_10-42-12.txt
# Wavelength (nm)	Intensity (a.u.)
197.7802	0.000579
200.4334	-0.000561
203.0892	-0.000118
205.7475	0.000114
208.4084	0.000135
211.0718	0.000114
213.7376	0.000536
216.4060	0.000748
219.0769	0.001444
221.7503	0.000832
224.4262	0.000135
227.1046	0.001845
229.7855	0.001360
232.4688	0.001465
235.1546	0.000389
237.8429	0.000600
240.5337	0.001360
243.2269	0.001001
245.9225	0.000304
248.6206	-0.001131
251.3212	0.000515
254.0242	0.000494
256.7296	0.000473
259.4375	0.001170
262.1477	0.000030
264.8604	0.000663
267.5755	-0.000751
270.2931	0.000705
273.0130	-0.000456
275.7353	0.001718
278.4600	0.001149
281.1871	-0.000582
283.9166	0.000853
286.6484	-0.000920
289.3827	-0.000012
292.1193	0.001486
294.8582	0.001127
297.5995	0.000515
300.3432	-0.001131
303.0892	0.000515
305.8376	0.001127
308.5883	0.001149
311.3413	-0.000540
314.0967	-0.000392
316.8543	-0.000033
319.6143	-0.001448
322.3766	0.001191
325.1412	0.000536
327.9082	-0.000371
330.6774	-0.000899
333.4489	0.000705
336.2227	0.000072
338.9987	0.001571
341.7771	0.001444
344.5577	0.000748
347.3406	-0.000456
350.1257	0.000600
352.9131	0.000241
355.7027	0.001317
358.4946	-0.000202
361.2888	-0.000055
364.0851	0.001824
366.8837	0.000600
369.6845	0.001212
372.4876	0.000325
375.2928	0.000790
378.1003	0.001254
380.9100	-0.001426
383.7219	0.000410
386.5359	0.000452
389.3522	0.003491
392.1706	0.005940
394.9912	0.010224
397.8140	0.015437
400.6390	0.019659
403.4661	0.020693
406.2954	0.027194
409.1269	0.025801
411.9605	0.028692
414.7962	0.030043
417.6341	0.029283
420.4741	0.033314
423.3162	0.034264
426.1605	0.030233
429.0068	0.031288
431.8553	0.032344
434.7059	0.030212
437.5586	0.031753
440.4135	0.030571
443.2703	0.034285
446.1293	0.031563
448.9904	0.028122
451.8535	0.025526
454.7188	0.022719
457.5860	0.019068
460.4554	0.020482
463.3268	0.017189
466.2003	0.018962
469.0758	0.013074
471.9533	0.009865
474.8329	0.009000
477.7145	0.007459
480.5982	0.007755
483.4838	0.007924
486.3715	0.016366
489.2612	0.006277
492.1529	0.004568
495.0466	0.004927
497.9423	0.002943
500.8400	0.003892
503.7397	0.005095
506.6414	0.003280
509.5450	0.002689
512.4506	0.003555
515.3582	0.004969
518.2677	0.004082
521.1792	0.003681
524.0927	0.003428
527.0081	0.003660
529.9254	0.003913
532.8447	0.005982
535.7659	0.008747
538.6890	0.010013
541.6140	0.011512
544.5410	0.013918
547.4699	0.016704
550.4007	0.018962
553.3333	0.024872
556.2679	0.027447
559.2044	0.027088
562.1427	0.035763
565.0829	0.040174
568.0250	0.058114
570.9690	0.114215
573.9149	0.157883
576.8626	0.180340
579.8121	0.208074
582.7635	0.268438
585.7167	0.237200
588.6718	0.199146
591.6288	0.133780
594.5875	0.174874
597.5481	0.153198
600.5105	0.184773
603.4747	0.190767
606.4407	0.166495
609.4085	0.136102
612.3781	0.131205
615.3495	0.131690
618.3227	0.114003
621.2977	0.078144
624.2745	0.087874
627.2530	0.071685
630.2333	0.061280
633.2154	0.046970
636.1992	0.044627
639.1848	0.042812
642.1721	0.033482
645.1612	0.029612
648.1520	0.030658
651.1445	0.029056
654.1388	0.034384
657.1348	0.871618
660.1325	0.061359
663.1319	0.022362
666.1330	0.023188
669.1359	0.022804
672.1404	0.034750
675.1466	0.026096
678.1545	0.029093
681.1641	0.033884
684.1754	0.033547
687.1883	0.044163
690.2029	0.033884
693.2192	0.040680
696.2371	0.030676
699.2567	0.036818
702.2779	0.028354
705.3008	0.026518
708.3253	0.040870
711.3514	0.032491
714.3791	0.036206
717.4085	0.029557
720.4395	0.027616
723.4721	0.028565
726.5063	0.033715
729.5421	0.036396
732.5795	0.043656
735.6185	0.050052
738.6591	0.040934
741.7013	0.034095
744.7450	0.029473
747.7903	0.031520
750.8372	0.040617
753.8856	0.041356
756.9356	0.051276
759.9872	0.060520
763.0403	0.050157
766.0949	0.051044
769.1510	0.048342
772.2087	0.041989
775.2679	0.030887
778.3287	0.027004
781.3909	0.035404
784.4547	0.030296
787.5199	0.031457
790.5867	0.026054
793.6550	0.024935
796.7247	0.021516
799.7959	0.021410
802.8686	0.016704
805.9428	0.020756
809.0185	0.022297
812.0956	0.017210
815.1742	0.017210
818.2542	0.012820
821.3357	0.015480
824.4186	0.011554
827.5029	0.014530
830.5887	0.010942
833.6759	0.012229
836.7646	0.008092
839.8546	0.008156
842.9461	0.005011
846.0390	0.006932
849.1333	0.005560
852.2289	0.006320
855.3260	0.015374
858.4245	0.010203
861.5243	0.005475
864.6255	0.006003
867.7281	0.004948
870.8321	0.006763
873.9374	0.005159
877.0441	0.004040
880.1521	0.009127
883.2615	0.005813
886.3722	0.007903
889.4843	0.006130
892.5977	0.004863
895.7124	0.004251
898.8284	0.005686
901.9458	0.004694
905.0644	0.006024
908.1844	0.005285
911.3057	0.004188
914.4283	0.003597
917.5521	0.005707
920.6773	0.003766
923.8037	0.005095
926.9314	0.002246
930.0604	0.003154
933.1906	0.002288
936.3221	0.002710
939.4549	0.001972
942.5889	0.001191
945.7241	0.000811
948.8606	0.001043
951.9983	0.000072
955.1373	0.000642
958.2775	0.002119
961.4189	0.000558
964.5615	0.001338
967.7053	0.001212
970.8504	0.000114
973.9966	0.000642
977.1440	0.000748
980.2926	-0.000118
983.4424	0.001592
986.5934	-0.000456
989.7456	0.000157
992.8989	0.001191
996.0534	0.000684
999.2090	-0.000835
1002.37	0.000832
1005.52	0.000937
1008.68	0.001043
1011.84	0.001043
1015	0.000621
1018.17	0.002014
1021.33	0.001697
1023.03	-0.000941