File: Auto_Polymerization/Spectra/spectrum_2025-06-19_10-26-51.txt
# Wavelength (nm)	Intensity (a.u.)
197.7802	0.001335
200.4334	-0.001114
203.0892	0.000301
205.7475	-0.002887
208.4084	0.001758
211.0718	-0.000375
213.7376	-0.000966
216.4060	0.000660
219.0769	-0.000079
221.7503	0.000808
224.4262	0.000428
227.1046	-0.000164
229.7855	0.001525
232.4688	0.000639
235.1546	0.000491
237.8429	-0.000797
240.5337	0.000491
243.2269	0.000976
245.9225	-0.000417
248.6206	-0.000565
251.3212	-0.000037
254.0242	0.000153
256.7296	0.000343
259.4375	0.001821
262.1477	0.001314
264.8604	0.000850
267.5755	-0.000544
270.2931	-0.001473
273.0130	-0.000121
275.7353	0.000238
278.4600	0.000934
281.1871	0.000301
283.9166	0.000660
286.6484	-0.000438
289.3827	0.000280
292.1193	0.001251
294.8582	0.000005
297.5995	0.000132
300.3432	0.000765
303.0892	-0.000586
305.8376	-0.000185
308.5883	0.000428
311.3413	0.001188
314.0967	0.000618
316.8543	-0.000311
319.6143	0.000069
322.3766	-0.000121
325.1412	-0.000269
327.9082	0.001652
330.6774	-0.000565
333.4489	0.001293
336.2227	-0.000016
338.9987	0.000913
341.7771	0.000892
344.5577	0.000385
347.3406	-0.000523
350.1257	0.000153
352.9131	-0.000248
355.7027	-0.000206
358.4946	0.000090
361.2888	0.001525
364.0851	-0.000121
366.8837	-0.000227
369.6845	-0.000734
372.4876	0.000765
375.2928	-0.000523
378.1003	0.000660
380.9100	0.001736
383.7219	-0.000100
386.5359	-0.000628
389.3522	0.002116
392.1706	0.006318
394.9912	0.010793
397.8140	0.014340
400.6390	0.017359
403.4661	0.020019
406.2954	0.025973
409.1269	0.026479
411.9605	0.027852
414.7962	0.028358
417.6341	0.028358
420.4741	0.032137
423.3162	0.033594
426.1605	0.030490
429.0068	0.031799
431.8553	0.031799
434.7059	0.031483
437.5586	0.030322
440.4135	0.027999
443.2703	0.033467
446.1293	0.030617
448.9904	0.027450
451.8535	0.025804
454.7188	0.022341
457.5860	0.021032
460.4554	0.019597
463.3268	0.017085
466.2003	0.017570
469.0758	0.012926
471.9533	0.010540
474.8329	0.009252
477.7145	0.008640
480.5982	0.006909
483.4838	0.006339
486.3715	0.015142
489.2612	0.004777
492.1529	0.005072
495.0466	0.003256
497.9423	0.003974
500.8400	0.003341
503.7397	0.003679
506.6414	0.002243
509.5450	0.002834
512.4506	0.001715
515.3582	0.001884
518.2677	0.003003
521.1792	0.002349
524.0927	0.005157
527.0081	0.003658
529.9254	0.006951
532.8447	0.006212
535.7659	0.006128
538.6890	0.009273
541.6140	0.013073
544.5410	0.014488
547.4699	0.018837
550.4007	0.017380
553.3333	0.022743
556.2679	0.026965
559.2044	0.023566
562.1427	0.037204
565.0829	0.040856
568.0250	0.057724
570.9690	0.116077
573.9149	0.156822
576.8626	0.184901
579.8121	0.208715
582.7635	0.265737
585.7167	0.237279
588.6718	0.198645
591.6288	0.135795
594.5875	0.173290
597.5481	0.154669
600.5105	0.185745
603.4747	0.191171
606.4407	0.165309
609.4085	0.133937
612.3781	0.131657
615.3495	0.131066
618.3227	0.110525
621.2977	0.073326
624.2745	0.090110
627.2530	0.072482
630.2333	0.060068
633.2154	0.046430
636.1992	0.042820
639.1848	0.042946
642.1721	0.032018
645.1612	0.026700
648.1520	0.028071
651.1445	0.029507
654.1388	0.033238
657.1348	0.876039
660.1325	0.061053
663.1319	0.021543
666.1330	0.024010
669.1359	0.022109
672.1404	0.033066
675.1466	0.028696
678.1545	0.028274
681.1641	0.034945
684.1754	0.031863
687.1883	0.046050
690.2029	0.034839
693.2192	0.039906
696.2371	0.028189
699.2567	0.036887
702.2779	0.030153
705.3008	0.022067
708.3253	0.038238
711.3514	0.033066
714.3791	0.035599
717.4085	0.027915
720.4395	0.027450
723.4721	0.029287
726.5063	0.033974
729.5421	0.035621
732.5795	0.042102
735.6185	0.047718
738.6591	0.040920
741.7013	0.037120
744.7450	0.029604
747.7903	0.031736
750.8372	0.039357
753.8856	0.044931
756.9356	0.050314
759.9872	0.058294
763.0403	0.047253
766.0949	0.052257
769.1510	0.049259
772.2087	0.039294
775.2679	0.031250
778.3287	0.025951
781.3909	0.037141
784.4547	0.030955
787.5199	0.027556
790.5867	0.023883
793.6550	0.022869
796.7247	0.021075
799.7959	0.020589
802.8686	0.015945
805.9428	0.021075
809.0185	0.022215
812.0956	0.017549
815.1742	0.016050
818.2542	0.013665
821.3357	0.015016
824.4186	0.011596
827.5029	0.014192
830.5887	0.009527
833.6759	0.009780
836.7646	0.008450
839.8546	0.007183
842.9461	0.005558
846.0390	0.007605
849.1333	0.004903
852.2289	0.005980
855.3260	0.013728
858.4245	0.012292
861.5243	0.007500
864.6255	0.007099
867.7281	0.005135
870.8321	0.005452
873.9374	0.004840
877.0441	0.005600
880.1521	0.008640
883.2615	0.006655
886.3722	0.007458
889.4843	0.004523
892.5977	0.004629
895.7124	0.003869
898.8284	0.004608
901.9458	0.003383
905.0644	0.004819
908.1844	0.003193
911.3057	0.003341
914.4283	0.003383
917.5521	0.003679
920.6773	0.005030
923.8037	0.004882
926.9314	0.001504
930.0604	0.001884
933.1906	0.000744
936.3221	0.001462
939.4549	0.002243
942.5889	-0.000670
945.7241	0.000913
948.8606	0.001103
951.9983	0.001061
955.1373	0.001884
958.2775	0.001525
961.4189	0.002053
964.5615	0.001926
967.7053	-0.000100
970.8504	-0.000016
973.9966	0.000850
977.1440	0.000322
980.2926	-0.000860
983.4424	0.000195
986.5934	0.000005
989.7456	-0.000691
992.8989	0.000660
996.0534	0.001019
999.2090	-0.000121
1002.37	0.001061
1005.52	-0.000037
1008.68	-0.001093
1011.84	0.001483
1015	0.000069
1018.17	0.001420
1021.33	0.000575
1023.03	0.000132