File: Auto_Polymerization/Spectra/spectrum_2025-06-19_11-38-50.txt
# Wavelength (nm)	Intensity (a.u.)
197.7802	0.000498
200.4334	0.000688
203.0892	0.000772
205.7475	0.000941
208.4084	0.000751
211.0718	0.001743
213.7376	-0.000790
216.4060	0.001004
219.0769	0.000793
221.7503	-0.000114
224.4262	-0.000368
227.1046	0.001089
229.7855	-0.000347
232.4688	0.000730
235.1546	0.001110
237.8429	-0.000431
240.5337	0.000012
243.2269	0.001047
245.9225	0.000519
248.6206	-0.000558
251.3212	0.000033
254.0242	0.000899
256.7296	0.001828
259.4375	0.000688
262.1477	0.001722
264.8604	0.000561
267.5755	0.000983
270.2931	0.002081
273.0130	0.000498
275.7353	0.000793
278.4600	0.000667
281.1871	0.000392
283.9166	-0.000494
286.6484	0.000793
289.3827	0.000899
292.1193	0.001089
294.8582	0.000751
297.5995	-0.000389
300.3432	-0.000093
303.0892	-0.000938
305.8376	0.001954
308.5883	0.001068
311.3413	0.001363
314.0967	0.000076
316.8543	0.000751
319.6143	-0.000241
322.3766	-0.000093
325.1412	-0.000621
327.9082	0.001722
330.6774	-0.000135
333.4489	0.000287
336.2227	-0.000051
338.9987	-0.000009
341.7771	0.000181
344.5577	0.000751
347.3406	0.000540
350.1257	0.000793
352.9131	-0.000283
355.7027	0.001722
358.4946	-0.000220
361.2888	0.000709
364.0851	-0.000009
366.8837	0.001638
369.6845	-0.000135
372.4876	0.000582
375.2928	-0.000093
378.1003	-0.000241
380.9100	0.000012
383.7219	0.001173
386.5359	0.001131
389.3522	0.001237
392.1706	0.001975
394.9912	0.006176
397.8140	0.006725
400.6390	0.007548
403.4661	0.008920
406.2954	0.010314
409.1269	0.013184
411.9605	0.015127
414.7962	0.015950
417.6341	0.016456
420.4741	0.020573
423.3162	0.022979
426.1605	0.020552
429.0068	0.022578
431.8553	0.021248
434.7059	0.023655
437.5586	0.025238
440.4135	0.024668
443.2703	0.025428
446.1293	0.027961
448.9904	0.024837
451.8535	0.020108
454.7188	0.018040
457.5860	0.020045
460.4554	0.020214
463.3268	0.014177
466.2003	0.015760
469.0758	0.010694
471.9533	0.008667
474.8329	0.008562
477.7145	0.006999
480.5982	0.008350
483.4838	0.006535
486.3715	0.016963
489.2612	0.006113
492.1529	0.005564
495.0466	0.003833
497.9423	0.003812
500.8400	0.002482
503.7397	0.002714
506.6414	0.001701
509.5450	0.002989
512.4506	0.002292
515.3582	0.003812
518.2677	0.003390
521.1792	0.003263
524.0927	0.002968
527.0081	0.004910
529.9254	0.005142
532.8447	0.005311
535.7659	0.008097
538.6890	0.009913
541.6140	0.011179
544.5410	0.012973
547.4699	0.015612
550.4007	0.018546
553.3333	0.021713
556.2679	0.024710
559.2044	0.026652
562.1427	0.031908
565.0829	0.039782
568.0250	0.055846
570.9690	0.108345
573.9149	0.153033
576.8626	0.180264
579.8121	0.201437
582.7635	0.257862
585.7167	0.227338
588.6718	0.193310
591.6288	0.132135
594.5875	0.168443
597.5481	0.148875
600.5105	0.183557
603.4747	0.187336
606.4407	0.164242
609.4085	0.133676
612.3781	0.127681
615.3495	0.126837
618.3227	0.106445
621.2977	0.072797
624.2745	0.089072
627.2530	0.070412
630.2333	0.059709
633.2154	0.048163
636.1992	0.042906
639.1848	0.041281
642.1721	0.031468
645.1612	0.027333
648.1520	0.028009
651.1445	0.028957
654.1388	0.033710
657.1348	0.866216
660.1325	0.058569
663.1319	0.022747
666.1330	0.025988
669.1359	0.021797
672.1404	0.032204
675.1466	0.026821
678.1545	0.029607
681.1641	0.033597
684.1754	0.034843
687.1883	0.042885
690.2029	0.036004
693.2192	0.038452
696.2371	0.032352
699.2567	0.037523
702.2779	0.030283
705.3008	0.023190
708.3253	0.035961
711.3514	0.031022
714.3791	0.036088
717.4085	0.029460
720.4395	0.027665
723.4721	0.028468
726.5063	0.032943
729.5421	0.037967
732.5795	0.039698
735.6185	0.050316
738.6591	0.041133
741.7013	0.033597
744.7450	0.029291
747.7903	0.033555
750.8372	0.041978
753.8856	0.043181
756.9356	0.050442
759.9872	0.060216
763.0403	0.049872
766.0949	0.051709
769.1510	0.048986
772.2087	0.042041
775.2679	0.032267
778.3287	0.026230
781.3909	0.035054
784.4547	0.028151
787.5199	0.029249
790.5867	0.025090
793.6550	0.024119
796.7247	0.021016
799.7959	0.024985
802.8686	0.017913
805.9428	0.020129
809.0185	0.022430
812.0956	0.017829
815.1742	0.016689
818.2542	0.014092
821.3357	0.015675
824.4186	0.011707
827.5029	0.014620
830.5887	0.010715
833.6759	0.010461
836.7646	0.008646
839.8546	0.007401
842.9461	0.006430
846.0390	0.004382
849.1333	0.004656
852.2289	0.006598
855.3260	0.013564
858.4245	0.010567
861.5243	0.007738
864.6255	0.005986
867.7281	0.005902
870.8321	0.007063
873.9374	0.005374
877.0441	0.006303
880.1521	0.008477
883.2615	0.006092
886.3722	0.006598
889.4843	0.005691
892.5977	0.005902
895.7124	0.004635
898.8284	0.005247
901.9458	0.005480
905.0644	0.004783
908.1844	0.003685
911.3057	0.004825
914.4283	0.003348
917.5521	0.003664
920.6773	0.001891
923.8037	0.003305
926.9314	0.001004
930.0604	0.002799
933.1906	0.002883
936.3221	0.003136
939.4549	0.002271
942.5889	0.001258
945.7241	0.001933
948.8606	0.001110
951.9983	0.002081
955.1373	0.000561
958.2775	0.000730
961.4189	0.000540
964.5615	0.002018
967.7053	0.000709
970.8504	0.001764
973.9966	0.001363
977.1440	0.000962
980.2926	-0.000072
983.4424	0.001427
986.5934	0.000983
989.7456	-0.000347
992.8989	0.001406
996.0534	0.000751
999.2090	0.000223
1002.37	0.000772
1005.52	0.001258
1008.68	-0.001128
1011.84	0.000709
1015	-0.000135
1018.17	0.000181
1021.33	0.001659
1023.03	-0.000790