File: Auto_Polymerization/Spectra/spectrum_2025-06-19_12-04-25.txt
# Wavelength (nm)	Intensity (a.u.)
197.7802	-0.000616
200.4334	-0.000975
203.0892	0.000208
205.7475	-0.000236
208.4084	0.001643
211.0718	-0.001355
213.7376	0.000651
216.4060	0.000208
219.0769	0.000545
221.7503	-0.000426
224.4262	0.000968
227.1046	-0.000215
229.7855	0.000503
232.4688	-0.001249
235.1546	0.000609
237.8429	-0.000088
240.5337	0.001306
243.2269	0.000503
245.9225	0.001179
248.6206	0.000208
251.3212	0.000292
254.0242	0.000735
256.7296	-0.000257
259.4375	-0.000384
262.1477	0.000503
264.8604	-0.000088
267.5755	0.000419
270.2931	0.000735
273.0130	0.000524
275.7353	-0.000194
278.4600	0.000757
281.1871	0.001876
283.9166	-0.000046
286.6484	-0.000130
289.3827	0.000545
292.1193	0.001010
294.8582	0.000313
297.5995	-0.000764
300.3432	0.001158
303.0892	-0.000510
305.8376	0.001517
308.5883	-0.000468
311.3413	0.000018
314.0967	-0.000933
316.8543	0.000567
319.6143	0.001686
322.3766	0.001517
325.1412	-0.001819
327.9082	0.000271
330.6774	0.000039
333.4489	0.001939
336.2227	0.000588
338.9987	-0.001123
341.7771	-0.000299
344.5577	0.000545
347.3406	-0.000088
350.1257	0.001897
352.9131	0.001158
355.7027	0.000334
358.4946	0.000968
361.2888	0.000567
364.0851	0.000883
366.8837	0.000947
369.6845	0.001263
372.4876	-0.000447
375.2928	0.000989
378.1003	0.000461
380.9100	0.000714
383.7219	0.000060
386.5359	-0.000130
389.3522	0.000630
392.1706	0.001242
394.9912	0.003691
397.8140	0.003565
400.6390	0.006563
403.4661	0.006014
406.2954	0.009561
409.1269	0.010215
411.9605	0.011081
414.7962	0.013847
417.6341	0.014100
420.4741	0.018154
423.3162	0.017753
426.1605	0.017584
429.0068	0.019527
431.8553	0.019843
434.7059	0.021005
437.5586	0.021490
440.4135	0.021005
443.2703	0.027339
446.1293	0.023686
448.9904	0.021828
451.8535	0.019674
454.7188	0.017647
457.5860	0.018640
460.4554	0.016233
463.3268	0.013087
466.2003	0.013763
469.0758	0.011609
471.9533	0.006964
474.8329	0.008949
477.7145	0.006373
480.5982	0.007302
483.4838	0.005402
486.3715	0.016169
489.2612	0.004473
492.1529	0.004114
495.0466	0.004515
497.9423	0.004388
500.8400	0.003332
503.7397	0.004768
506.6414	0.002509
509.5450	0.003248
512.4506	0.001770
515.3582	0.003037
518.2677	0.002425
521.1792	0.002298
524.0927	0.004156
527.0081	0.004219
529.9254	0.005803
532.8447	0.005866
535.7659	0.007492
538.6890	0.009371
541.6140	0.011313
544.5410	0.014417
547.4699	0.017479
550.4007	0.019315
553.3333	0.021997
556.2679	0.026051
559.2044	0.025143
562.1427	0.034074
565.0829	0.038972
568.0250	0.053456
570.9690	0.110611
573.9149	0.147391
576.8626	0.174268
579.8121	0.199457
582.7635	0.256780
585.7167	0.227115
588.6718	0.196290
591.6288	0.129740
594.5875	0.167871
597.5481	0.151846
600.5105	0.179990
603.4747	0.185817
606.4407	0.159742
609.4085	0.131429
612.3781	0.127269
615.3495	0.130310
618.3227	0.109048
621.2977	0.073704
624.2745	0.084008
627.2530	0.070178
630.2333	0.063802
633.2154	0.044968
636.1992	0.044821
639.1848	0.041231
642.1721	0.030160
645.1612	0.024898
648.1520	0.028570
651.1445	0.029096
654.1388	0.032293
657.1348	0.870559
660.1325	0.059924
663.1319	0.019852
666.1330	0.022827
669.1359	0.019527
672.1404	0.031646
675.1466	0.026008
678.1545	0.030062
681.1641	0.035615
684.1754	0.035298
687.1883	0.046235
690.2029	0.034348
693.2192	0.039458
696.2371	0.028774
699.2567	0.036565
702.2779	0.031308
705.3008	0.023475
708.3253	0.039183
711.3514	0.033630
714.3791	0.034475
717.4085	0.029957
720.4395	0.026051
723.4721	0.025650
726.5063	0.033440
729.5421	0.036164
732.5795	0.042857
735.6185	0.047523
738.6591	0.038107
741.7013	0.035087
744.7450	0.029598
747.7903	0.030822
750.8372	0.040598
753.8856	0.040767
756.9356	0.051345
759.9872	0.062007
763.0403	0.048516
766.0949	0.049487
769.1510	0.047354
772.2087	0.040577
775.2679	0.030020
778.3287	0.025713
781.3909	0.034581
784.4547	0.029133
787.5199	0.029724
790.5867	0.025671
793.6550	0.023644
796.7247	0.022398
799.7959	0.021068
802.8686	0.016402
805.9428	0.018661
809.0185	0.021427
812.0956	0.018091
815.1742	0.016718
818.2542	0.014312
821.3357	0.014375
824.4186	0.011039
827.5029	0.014016
830.5887	0.009603
833.6759	0.010068
836.7646	0.007450
839.8546	0.008125
842.9461	0.004726
846.0390	0.006331
849.1333	0.005296
852.2289	0.006246
855.3260	0.013129
858.4245	0.009709
861.5243	0.007091
864.6255	0.007048
867.7281	0.004853
870.8321	0.006584
873.9374	0.005634
877.0441	0.004325
880.1521	0.006415
883.2615	0.005359
886.3722	0.006880
889.4843	0.004641
892.5977	0.006141
895.7124	0.004684
898.8284	0.005317
901.9458	0.005233
905.0644	0.004937
908.1844	0.002910
911.3057	0.004346
914.4283	0.002910
917.5521	0.004578
920.6773	0.003459
923.8037	0.003712
926.9314	0.003417
930.0604	0.002488
933.1906	0.002298
936.3221	0.003881
939.4549	0.002235
942.5889	0.001918
945.7241	-0.000109
948.8606	-0.000151
951.9983	-0.000130
955.1373	0.002235
958.2775	0.001327
961.4189	0.000630
964.5615	0.002551
967.7053	0.002002
970.8504	0.002446
973.9966	0.000355
977.1440	0.000904
980.2926	0.000334
983.4424	0.000989
986.5934	0.000799
989.7456	0.000841
992.8989	-0.000510
996.0534	0.000313
999.2090	-0.000384
1002.37	-0.000109
1005.52	0.001643
1008.68	-0.000637
1011.84	0.000440
1015	-0.001629
1018.17	0.001221
1021.33	-0.000130
1023.03	-0.000552