File: Auto_Polymerization/Spectra/spectrum_2025-06-19_11-01-43.txt
# Wavelength (nm)	Intensity (a.u.)
197.7802	0.002118
200.4334	-0.000521
203.0892	0.001295
205.7475	0.000408
208.4084	-0.000289
211.0718	0.001591
213.7376	-0.001070
216.4060	0.000809
219.0769	0.000155
221.7503	0.000472
224.4262	0.000809
227.1046	-0.000289
229.7855	0.000577
232.4688	0.000598
235.1546	-0.000542
237.8429	0.000007
240.5337	-0.000246
243.2269	0.000472
245.9225	-0.000289
248.6206	-0.000690
251.3212	0.000493
254.0242	0.000704
256.7296	-0.000120
259.4375	0.000493
262.1477	0.001569
264.8604	0.000619
267.5755	0.000514
270.2931	-0.001154
273.0130	-0.001260
275.7353	-0.001070
278.4600	0.001316
281.1871	0.000873
283.9166	-0.000838
286.6484	-0.000774
289.3827	0.000704
292.1193	0.000408
294.8582	-0.000077
297.5995	0.000091
300.3432	0.000091
303.0892	0.000598
305.8376	0.000852
308.5883	0.000408
311.3413	0.001464
314.0967	0.000809
316.8543	0.000514
319.6143	0.000324
322.3766	0.000725
325.1412	-0.000099
327.9082	0.000493
330.6774	0.000640
333.4489	-0.000310
336.2227	0.000070
338.9987	0.000725
341.7771	-0.000669
344.5577	0.001844
347.3406	0.000260
350.1257	0.001443
352.9131	0.000619
355.7027	0.000324
358.4946	0.000366
361.2888	0.000873
364.0851	-0.000479
366.8837	0.000725
369.6845	-0.000795
372.4876	0.000830
375.2928	0.001295
378.1003	0.000767
380.9100	-0.000901
383.7219	0.000894
386.5359	0.000366
389.3522	0.002351
392.1706	0.001548
394.9912	0.008579
397.8140	0.012422
400.6390	0.014935
403.4661	0.016560
406.2954	0.021163
409.1269	0.022134
411.9605	0.022282
414.7962	0.024520
417.6341	0.024246
420.4741	0.029672
423.3162	0.031952
426.1605	0.025977
429.0068	0.030474
431.8553	0.029799
434.7059	0.028912
437.5586	0.031636
440.4135	0.028025
443.2703	0.031234
446.1293	0.030411
448.9904	0.028996
451.8535	0.024330
454.7188	0.021015
457.5860	0.019727
460.4554	0.019390
463.3268	0.016560
466.2003	0.016032
469.0758	0.012971
471.9533	0.010099
474.8329	0.009487
477.7145	0.008579
480.5982	0.007334
483.4838	0.006616
486.3715	0.016898
489.2612	0.004610
492.1529	0.004399
495.0466	0.004124
497.9423	0.002562
500.8400	0.002034
503.7397	0.002942
506.6414	0.003364
509.5450	0.003660
512.4506	0.002034
515.3582	0.002330
518.2677	0.004694
521.1792	0.003090
524.0927	0.003533
527.0081	0.003976
529.9254	0.006046
532.8447	0.004166
535.7659	0.008917
538.6890	0.009297
541.6140	0.012549
544.5410	0.014428
547.4699	0.015272
550.4007	0.017257
553.3333	0.022050
556.2679	0.026653
559.2044	0.028236
562.1427	0.032353
565.0829	0.041876
568.0250	0.054713
570.9690	0.112523
573.9149	0.153230
576.8626	0.184669
579.8121	0.205656
582.7635	0.267751
585.7167	0.236756
588.6718	0.197316
591.6288	0.133679
594.5875	0.173668
597.5481	0.153568
600.5105	0.182029
603.4747	0.189039
606.4407	0.165371
609.4085	0.134143
612.3781	0.137880
615.3495	0.132496
618.3227	0.110855
621.2977	0.077875
624.2745	0.087439
627.2530	0.070422
630.2333	0.060878
633.2154	0.046267
636.1992	0.044747
639.1848	0.039553
642.1721	0.032513
645.1612	0.029262
648.1520	0.030733
651.1445	0.029235
654.1388	0.034310
657.1348	0.874358
660.1325	0.060530
663.1319	0.023231
666.1330	0.023678
669.1359	0.019748
672.1404	0.033092
675.1466	0.025850
678.1545	0.028743
681.1641	0.032565
684.1754	0.032311
687.1883	0.043692
690.2029	0.034803
693.2192	0.039152
696.2371	0.031424
699.2567	0.034423
702.2779	0.031023
705.3008	0.024520
708.3253	0.036851
711.3514	0.035732
714.3791	0.034401
717.4085	0.029524
720.4395	0.027814
723.4721	0.028257
726.5063	0.033937
729.5421	0.037379
732.5795	0.039870
735.6185	0.046943
738.6591	0.039891
741.7013	0.033261
744.7450	0.028574
747.7903	0.031783
750.8372	0.038033
753.8856	0.040630
756.9356	0.049456
759.9872	0.059654
763.0403	0.050237
766.0949	0.050554
769.1510	0.047661
772.2087	0.042657
775.2679	0.030390
778.3287	0.025850
781.3909	0.034739
784.4547	0.032290
787.5199	0.028764
790.5867	0.024795
793.6550	0.023486
796.7247	0.021754
799.7959	0.021839
802.8686	0.017489
805.9428	0.019390
809.0185	0.021058
812.0956	0.017912
815.1742	0.015061
818.2542	0.012865
821.3357	0.016222
824.4186	0.010543
827.5029	0.014787
830.5887	0.009107
833.6759	0.011071
836.7646	0.006236
839.8546	0.007946
842.9461	0.003913
846.0390	0.006003
849.1333	0.005729
852.2289	0.004314
855.3260	0.012865
858.4245	0.009128
861.5243	0.006278
864.6255	0.007376
867.7281	0.005222
870.8321	0.005180
873.9374	0.004378
877.0441	0.004314
880.1521	0.008812
883.2615	0.005856
886.3722	0.005391
889.4843	0.004715
892.5977	0.005264
895.7124	0.005117
898.8284	0.005222
901.9458	0.005666
905.0644	0.006109
908.1844	0.005138
911.3057	0.003322
914.4283	0.003069
917.5521	0.005792
920.6773	0.003216
923.8037	0.001696
926.9314	0.001971
930.0604	0.002308
933.1906	0.002287
936.3221	0.001527
939.4549	0.003026
942.5889	0.002076
945.7241	0.001211
948.8606	0.001084
951.9983	0.001358
955.1373	0.001548
958.2775	0.001971
961.4189	0.001464
964.5615	0.002140
967.7053	0.000197
970.8504	0.000830
973.9966	-0.000204
977.1440	0.000345
980.2926	0.000049
983.4424	0.000493
986.5934	0.002140
989.7456	-0.000099
992.8989	0.001717
996.0534	0.000915
999.2090	-0.000394
1002.37	-0.000795
1005.52	0.001211
1008.68	-0.000626
1011.84	0.000767
1015	0.001612
1018.17	0.000408
1021.33	0.000450
1023.03	-0.001640