File: Auto_Polymerization/Spectra/spectrum_2025-06-19_12-24-52.txt
# Wavelength (nm)	Intensity (a.u.)
197.7802	0.000862
200.4334	0.000376
203.0892	0.000060
205.7475	0.000524
208.4084	0.000524
211.0718	-0.001038
213.7376	0.000355
216.4060	0.001158
219.0769	0.000588
221.7503	-0.001017
224.4262	0.001348
227.1046	0.000018
229.7855	0.001305
232.4688	0.000609
235.1546	0.000799
237.8429	-0.000257
240.5337	0.000545
243.2269	0.001200
245.9225	-0.000004
248.6206	0.001073
251.3212	0.000566
254.0242	-0.000637
256.7296	0.000292
259.4375	0.000398
262.1477	-0.000595
264.8604	0.001495
267.5755	0.000862
270.2931	0.000545
273.0130	0.001538
275.7353	0.001200
278.4600	0.000123
281.1871	0.000756
283.9166	0.000123
286.6484	-0.000848
289.3827	0.001179
292.1193	0.000503
294.8582	0.000883
297.5995	-0.000426
300.3432	0.000799
303.0892	-0.000215
305.8376	0.002044
308.5883	0.000271
311.3413	0.000989
314.0967	-0.001502
316.8543	0.000566
319.6143	0.000566
322.3766	0.002171
325.1412	-0.000341
327.9082	0.000778
330.6774	-0.000046
333.4489	0.001305
336.2227	0.000756
338.9987	0.000398
341.7771	0.000081
344.5577	0.000419
347.3406	0.001221
350.1257	0.000904
352.9131	-0.000151
355.7027	0.001622
358.4946	0.000524
361.2888	0.000271
364.0851	-0.000531
366.8837	0.001432
369.6845	0.000039
372.4876	-0.000130
375.2928	0.000545
378.1003	0.001284
380.9100	-0.000257
383.7219	0.000862
386.5359	0.000334
389.3522	0.001981
392.1706	0.002614
394.9912	0.001453
397.8140	0.003965
400.6390	0.005063
403.4661	0.006583
406.2954	0.007808
409.1269	0.009982
411.9605	0.010066
414.7962	0.011502
417.6341	0.013507
420.4741	0.014859
423.3162	0.018806
426.1605	0.015365
429.0068	0.018532
431.8553	0.019587
434.7059	0.020516
437.5586	0.021910
440.4135	0.021910
443.2703	0.026554
446.1293	0.024316
448.9904	0.023303
451.8535	0.020939
454.7188	0.017012
457.5860	0.016653
460.4554	0.017371
463.3268	0.014436
466.2003	0.014837
469.0758	0.009665
471.9533	0.007955
474.8329	0.008694
477.7145	0.007955
480.5982	0.007428
483.4838	0.005443
486.3715	0.016674
489.2612	0.004409
492.1529	0.004641
495.0466	0.003606
497.9423	0.005739
500.8400	0.003649
503.7397	0.003564
506.6414	0.002846
509.5450	0.004345
512.4506	0.004261
515.3582	0.003564
518.2677	0.004641
521.1792	0.002213
524.0927	0.004113
527.0081	0.003501
529.9254	0.004936
532.8447	0.006731
535.7659	0.009412
538.6890	0.008821
541.6140	0.011312
544.5410	0.013697
547.4699	0.016125
550.4007	0.016843
553.3333	0.020559
556.2679	0.023873
559.2044	0.023219
562.1427	0.033077
565.0829	0.040361
568.0250	0.053407
570.9690	0.107873
573.9149	0.150095
576.8626	0.173338
579.8121	0.201289
582.7635	0.254995
585.7167	0.223857
588.6718	0.192528
591.6288	0.127126
594.5875	0.165823
597.5481	0.149504
600.5105	0.180157
603.4747	0.186554
606.4407	0.161242
609.4085	0.133692
612.3781	0.127169
615.3495	0.124762
618.3227	0.108274
621.2977	0.075046
624.2745	0.088240
627.2530	0.072006
630.2333	0.060332
633.2154	0.044963
636.1992	0.043907
639.1848	0.041226
642.1721	0.030688
645.1612	0.027901
648.1520	0.027600
651.1445	0.026962
654.1388	0.031585
657.1348	0.856580
660.1325	0.062995
663.1319	0.019449
666.1330	0.024714
669.1359	0.020495
672.1404	0.031051
675.1466	0.027715
678.1545	0.028264
681.1641	0.034238
684.1754	0.033521
687.1883	0.043337
690.2029	0.036497
693.2192	0.039094
696.2371	0.029320
699.2567	0.034344
702.2779	0.027293
705.3008	0.026744
708.3253	0.038186
711.3514	0.032486
714.3791	0.033436
717.4085	0.027356
720.4395	0.027187
723.4721	0.029341
726.5063	0.033964
729.5421	0.038102
732.5795	0.041332
735.6185	0.048256
738.6591	0.039326
741.7013	0.034471
744.7450	0.029678
747.7903	0.031156
750.8372	0.040339
753.8856	0.043485
756.9356	0.050473
759.9872	0.060310
763.0403	0.047982
766.0949	0.050114
769.1510	0.048889
772.2087	0.040593
775.2679	0.030776
778.3287	0.026047
781.3909	0.035336
784.4547	0.030523
787.5199	0.028496
790.5867	0.026301
793.6550	0.024907
796.7247	0.022965
799.7959	0.022205
802.8686	0.015830
805.9428	0.020305
809.0185	0.024042
812.0956	0.016379
815.1742	0.016041
818.2542	0.014120
821.3357	0.014795
824.4186	0.010425
827.5029	0.013866
830.5887	0.010700
833.6759	0.009834
836.7646	0.006414
839.8546	0.008335
842.9461	0.006372
846.0390	0.006034
849.1333	0.005126
852.2289	0.007765
855.3260	0.012579
858.4245	0.009222
861.5243	0.006836
864.6255	0.006858
867.7281	0.005380
870.8321	0.004029
873.9374	0.005612
877.0441	0.005992
880.1521	0.008166
883.2615	0.005295
886.3722	0.007976
889.4843	0.005380
892.5977	0.004704
895.7124	0.004029
898.8284	0.006858
901.9458	0.003585
905.0644	0.005063
908.1844	0.003839
911.3057	0.004261
914.4283	0.003121
917.5521	0.006288
920.6773	0.004008
923.8037	0.002614
926.9314	0.002234
930.0604	0.002150
933.1906	0.003459
936.3221	0.000925
939.4549	0.002002
942.5889	0.000904
945.7241	0.001369
948.8606	0.000334
951.9983	0.001453
955.1373	0.001411
958.2775	0.001474
961.4189	-0.000299
964.5615	0.001601
967.7053	0.001369
970.8504	0.000482
973.9966	0.001263
977.1440	0.001263
980.2926	0.001622
983.4424	-0.000236
986.5934	0.001284
989.7456	0.000081
992.8989	0.000524
996.0534	0.000503
999.2090	0.000778
1002.37	0.000693
1005.52	0.001981
1008.68	0.000398
1011.84	0.000883
1015	0.000292
1018.17	0.000524
1021.33	0.001390
1023.03	0.001622