File: Auto_Polymerization/Spectra/spectrum_2025-06-19_12-40-13.txt
# Wavelength (nm)	Intensity (a.u.)
197.7802	-0.000121
200.4334	0.000237
203.0892	0.000153
205.7475	-0.000375
208.4084	0.001588
211.0718	-0.000290
213.7376	0.001019
216.4060	-0.000332
219.0769	0.000786
221.7503	0.000259
224.4262	0.000681
227.1046	0.000090
229.7855	-0.000185
232.4688	0.000976
235.1546	0.000026
237.8429	-0.001768
240.5337	0.000280
243.2269	0.000280
245.9225	0.000280
248.6206	0.000069
251.3212	0.001040
254.0242	0.001019
256.7296	0.000955
259.4375	-0.000227
262.1477	0.000470
264.8604	0.000280
267.5755	0.000322
270.2931	0.000660
273.0130	-0.000079
275.7353	0.000681
278.4600	0.000111
281.1871	0.000069
283.9166	-0.000164
286.6484	-0.000396
289.3827	-0.000332
292.1193	-0.000079
294.8582	-0.000354
297.5995	0.001610
300.3432	0.001757
303.0892	-0.000269
305.8376	0.000491
308.5883	-0.000100
311.3413	0.000660
314.0967	0.000301
316.8543	0.000660
319.6143	0.001061
322.3766	0.001103
325.1412	0.000111
327.9082	0.001567
330.6774	0.000829
333.4489	0.001504
336.2227	0.000090
338.9987	-0.000079
341.7771	-0.000142
344.5577	0.001377
347.3406	-0.000311
350.1257	0.001082
352.9131	-0.000311
355.7027	0.000005
358.4946	-0.000628
361.2888	0.000237
364.0851	-0.000206
366.8837	0.000026
369.6845	-0.000396
372.4876	0.000195
375.2928	0.000343
378.1003	0.001778
380.9100	0.001462
383.7219	0.000111
386.5359	-0.000185
389.3522	0.000259
392.1706	0.000449
394.9912	0.001947
397.8140	0.003129
400.6390	0.004882
403.4661	0.006549
406.2954	0.007647
409.1269	0.007921
411.9605	0.009462
414.7962	0.010687
417.6341	0.013072
420.4741	0.015605
423.3162	0.015310
426.1605	0.015394
429.0068	0.018455
431.8553	0.019447
434.7059	0.018835
437.5586	0.019954
440.4135	0.020545
443.2703	0.023943
446.1293	0.023479
448.9904	0.021832
451.8535	0.019890
454.7188	0.017547
457.5860	0.017568
460.4554	0.016091
463.3268	0.014275
466.2003	0.012312
469.0758	0.011721
471.9533	0.009019
474.8329	0.008217
477.7145	0.007795
480.5982	0.007267
483.4838	0.006423
486.3715	0.016260
489.2612	0.004839
492.1529	0.004523
495.0466	0.003889
497.9423	0.004269
500.8400	0.003404
503.7397	0.003868
506.6414	0.002517
509.5450	0.004333
512.4506	0.003615
515.3582	0.003172
518.2677	0.002285
521.1792	0.003995
524.0927	0.003974
527.0081	0.004480
529.9254	0.006148
532.8447	0.004459
535.7659	0.007457
538.6890	0.007879
541.6140	0.010412
544.5410	0.013790
547.4699	0.015880
550.4007	0.017526
553.3333	0.020882
556.2679	0.024661
559.2044	0.024133
562.1427	0.033063
565.0829	0.036503
568.0250	0.053834
570.9690	0.103652
573.9149	0.144837
576.8626	0.173018
579.8121	0.200566
582.7635	0.248146
585.7167	0.222498
588.6718	0.190095
591.6288	0.126113
594.5875	0.163392
597.5481	0.148573
600.5105	0.177388
603.4747	0.182158
606.4407	0.160458
609.4085	0.126831
612.3781	0.125838
615.3495	0.125226
618.3227	0.102597
621.2977	0.072938
624.2745	0.084337
627.2530	0.069941
630.2333	0.058626
633.2154	0.043554
636.1992	0.044694
639.1848	0.039860
642.1721	0.031972
645.1612	0.028492
648.1520	0.027651
651.1445	0.030569
654.1388	0.033554
657.1348	0.856168
660.1325	0.061110
663.1319	0.020362
666.1330	0.022726
669.1359	0.020439
672.1404	0.032535
675.1466	0.026941
678.1545	0.029495
681.1641	0.035680
684.1754	0.031226
687.1883	0.045222
690.2029	0.036820
693.2192	0.039142
696.2371	0.028651
699.2567	0.035722
702.2779	0.028988
705.3008	0.024703
708.3253	0.036862
711.3514	0.033168
714.3791	0.036419
717.4085	0.028651
720.4395	0.029706
723.4721	0.026603
726.5063	0.033928
729.5421	0.037242
732.5795	0.039670
735.6185	0.050731
738.6591	0.041105
741.7013	0.033105
744.7450	0.028904
747.7903	0.030487
750.8372	0.040768
753.8856	0.042435
756.9356	0.050119
759.9872	0.060019
763.0403	0.049380
766.0949	0.050140
769.1510	0.046383
772.2087	0.040789
775.2679	0.030487
778.3287	0.025484
781.3909	0.034815
784.4547	0.029432
787.5199	0.028271
790.5867	0.026751
793.6550	0.022022
796.7247	0.023057
799.7959	0.022043
802.8686	0.015014
805.9428	0.018877
809.0185	0.021748
812.0956	0.018518
815.1742	0.017083
818.2542	0.012988
821.3357	0.013705
824.4186	0.010898
827.5029	0.011974
830.5887	0.009737
833.6759	0.009483
836.7646	0.007140
839.8546	0.007774
842.9461	0.005093
846.0390	0.004502
849.1333	0.005072
852.2289	0.007098
855.3260	0.012650
858.4245	0.011341
861.5243	0.006971
864.6255	0.006338
867.7281	0.005409
870.8321	0.004502
873.9374	0.005135
877.0441	0.006887
880.1521	0.010581
883.2615	0.007161
886.3722	0.007161
889.4843	0.003256
892.5977	0.004987
895.7124	0.004607
898.8284	0.005937
901.9458	0.006486
905.0644	0.003699
908.1844	0.004269
911.3057	0.005198
914.4283	0.003319
917.5521	0.005557
920.6773	0.004839
923.8037	0.004438
926.9314	0.001377
930.0604	0.003467
933.1906	0.003045
936.3221	0.000723
939.4549	0.002665
942.5889	0.002264
945.7241	0.000997
948.8606	-0.000206
951.9983	0.001926
955.1373	0.000533
958.2775	0.002095
961.4189	0.001251
964.5615	0.001040
967.7053	0.000385
970.8504	0.000976
973.9966	0.000617
977.1440	0.001335
980.2926	0.000723
983.4424	0.000364
986.5934	0.000491
989.7456	-0.000079
992.8989	0.000596
996.0534	0.001293
999.2090	0.001251
1002.37	0.000090
1005.52	0.001335
1008.68	-0.000100
1011.84	0.001103
1015	0.001103
1018.17	-0.000121
1021.33	0.000216
1023.03	0.000871