File: Auto_Polymerization/Spectra/spectrum_2025-06-19_11-49-04.txt
# Wavelength (nm)	Intensity (a.u.)
197.7802	-0.000025
200.4334	0.000208
203.0892	-0.000172
205.7475	0.001031
208.4084	-0.000383
211.0718	-0.000130
213.7376	0.000967
216.4060	0.000376
219.0769	0.000609
221.7503	0.000313
224.4262	0.001052
227.1046	-0.000299
229.7855	0.001432
232.4688	-0.000362
235.1546	0.000102
237.8429	0.001981
240.5337	0.000904
243.2269	0.000609
245.9225	-0.000890
248.6206	0.000841
251.3212	0.000081
254.0242	0.000165
256.7296	0.000588
259.4375	0.000334
262.1477	0.000925
264.8604	0.000271
267.5755	0.001305
270.2931	0.000841
273.0130	-0.000341
275.7353	0.001495
278.4600	0.000398
281.1871	-0.000848
283.9166	0.000609
286.6484	0.000376
289.3827	0.001537
292.1193	0.001115
294.8582	0.000735
297.5995	-0.000806
300.3432	-0.000109
303.0892	-0.000278
305.8376	0.000419
308.5883	0.000208
311.3413	0.000208
314.0967	0.000461
316.8543	0.001622
319.6143	-0.000405
322.3766	0.000967
325.1412	-0.001207
327.9082	0.001157
330.6774	-0.000067
333.4489	0.001770
336.2227	0.001770
338.9987	0.001411
341.7771	-0.000341
344.5577	0.000524
347.3406	-0.000299
350.1257	0.001390
352.9131	-0.000848
355.7027	0.000989
358.4946	-0.000405
361.2888	0.000925
364.0851	0.001052
366.8837	0.001558
369.6845	0.000229
372.4876	0.000693
375.2928	0.000904
378.1003	0.001010
380.9100	0.000524
383.7219	0.000735
386.5359	-0.000172
389.3522	0.001073
392.1706	0.001791
394.9912	0.002635
397.8140	0.005062
400.6390	0.007638
403.4661	0.006899
406.2954	0.010234
409.1269	0.012450
411.9605	0.012408
414.7962	0.015764
417.6341	0.016524
420.4741	0.018867
423.3162	0.022815
426.1605	0.019289
429.0068	0.020746
431.8553	0.022709
434.7059	0.021675
437.5586	0.022012
440.4135	0.020577
443.2703	0.024841
446.1293	0.024968
448.9904	0.023574
451.8535	0.021970
454.7188	0.020049
457.5860	0.018297
460.4554	0.018931
463.3268	0.016376
466.2003	0.014751
469.0758	0.009664
471.9533	0.008778
474.8329	0.007363
477.7145	0.006814
480.5982	0.007532
483.4838	0.006202
486.3715	0.017390
489.2612	0.006055
492.1529	0.004514
495.0466	0.003226
497.9423	0.004640
500.8400	0.004155
503.7397	0.004197
506.6414	0.001664
509.5450	0.002508
512.4506	0.003796
515.3582	0.004429
518.2677	0.003332
521.1792	0.004007
524.0927	0.003923
527.0081	0.005126
529.9254	0.006878
532.8447	0.007321
535.7659	0.008609
538.6890	0.009685
541.6140	0.011268
544.5410	0.012324
547.4699	0.017875
550.4007	0.019247
553.3333	0.022920
556.2679	0.027015
559.2044	0.023469
562.1427	0.033474
565.0829	0.038983
568.0250	0.055511
570.9690	0.109253
573.9149	0.149570
576.8626	0.175237
579.8121	0.204134
582.7635	0.254435
585.7167	0.230034
588.6718	0.194129
591.6288	0.129791
594.5875	0.167406
597.5481	0.149401
600.5105	0.179206
603.4747	0.185200
606.4407	0.163670
609.4085	0.133781
612.3781	0.130002
615.3495	0.129095
618.3227	0.110203
621.2977	0.075817
624.2745	0.085337
627.2530	0.072377
630.2333	0.059268
633.2154	0.045928
636.1992	0.044387
639.1848	0.041474
642.1721	0.029812
645.1612	0.027068
648.1520	0.031571
651.1445	0.027768
654.1388	0.033607
657.1348	0.858687
660.1325	0.060588
663.1319	0.023425
666.1330	0.023430
669.1359	0.022878
672.1404	0.031490
675.1466	0.027733
678.1545	0.028556
681.1641	0.032250
684.1754	0.035501
687.1883	0.045590
690.2029	0.036070
693.2192	0.041727
696.2371	0.028493
699.2567	0.036070
702.2779	0.030941
705.3008	0.023532
708.3253	0.039997
711.3514	0.031574
714.3791	0.037464
717.4085	0.026741
720.4395	0.028450
723.4721	0.029421
726.5063	0.034044
729.5421	0.037801
732.5795	0.040377
735.6185	0.047828
738.6591	0.039807
741.7013	0.034382
744.7450	0.030709
747.7903	0.031997
750.8372	0.039321
753.8856	0.040588
756.9356	0.053105
759.9872	0.060915
763.0403	0.048947
766.0949	0.049960
769.1510	0.048989
772.2087	0.041749
775.2679	0.031448
778.3287	0.027121
781.3909	0.036113
784.4547	0.032060
787.5199	0.030413
790.5867	0.025390
793.6550	0.023638
796.7247	0.021970
799.7959	0.020176
802.8686	0.018213
805.9428	0.021105
809.0185	0.024545
812.0956	0.016250
815.1742	0.018994
818.2542	0.014160
821.3357	0.017622
824.4186	0.010255
827.5029	0.015722
830.5887	0.010424
833.6759	0.010002
836.7646	0.008904
839.8546	0.007975
842.9461	0.006055
846.0390	0.006308
849.1333	0.005801
852.2289	0.006899
855.3260	0.013632
858.4245	0.009833
861.5243	0.004872
864.6255	0.006561
867.7281	0.003690
870.8321	0.006055
873.9374	0.004725
877.0441	0.006350
880.1521	0.007469
883.2615	0.007173
886.3722	0.006477
889.4843	0.004155
892.5977	0.005865
895.7124	0.004640
898.8284	0.006055
901.9458	0.004493
905.0644	0.005105
908.1844	0.003965
911.3057	0.004830
914.4283	0.004471
917.5521	0.004028
920.6773	0.003627
923.8037	0.002931
926.9314	0.003754
930.0604	0.002002
933.1906	0.002192
936.3221	0.002783
939.4549	0.003775
942.5889	0.002361
945.7241	0.002276
948.8606	0.001347
951.9983	0.001263
955.1373	0.002825
958.2775	0.002656
961.4189	0.001474
964.5615	0.000060
967.7053	0.000018
970.8504	-0.000215
973.9966	0.001580
977.1440	0.001200
980.2926	0.001073
983.4424	0.000419
986.5934	0.000693
989.7456	0.001094
992.8989	0.001305
996.0534	0.001537
999.2090	-0.000320
1002.37	0.000799
1005.52	0.000482
1008.68	-0.000257
1011.84	-0.000848
1015	-0.000299
1018.17	0.001812
1021.33	0.000334
1023.03	-0.000067