File: Auto_Polymerization/Spectra/spectrum_2025-06-19_10-06-24.txt
# Wavelength (nm)	Intensity (a.u.)
197.7802	0.000760
200.4334	-0.000253
203.0892	-0.000042
205.7475	0.000253
208.4084	-0.000084
211.0718	0.001203
213.7376	0.000718
216.4060	-0.000232
219.0769	0.000676
221.7503	-0.000802
224.4262	0.000000
227.1046	0.000084
229.7855	-0.000169
232.4688	0.001161
235.1546	-0.000507
237.8429	-0.000401
240.5337	-0.000676
243.2269	0.000528
245.9225	0.000739
248.6206	0.000063
251.3212	-0.000591
254.0242	-0.000549
256.7296	0.001056
259.4375	-0.000274
262.1477	0.000042
264.8604	0.000106
267.5755	0.000549
270.2931	0.001583
273.0130	-0.001034
275.7353	-0.000063
278.4600	0.000380
281.1871	-0.000971
283.9166	0.000633
286.6484	-0.000697
289.3827	-0.000591
292.1193	0.000718
294.8582	-0.000401
297.5995	0.000570
300.3432	0.001689
303.0892	0.001583
305.8376	-0.000317
308.5883	-0.000760
311.3413	-0.000296
314.0967	-0.000380
316.8543	0.000971
319.6143	-0.000866
322.3766	0.000274
325.1412	-0.000127
327.9082	0.001351
330.6774	0.000253
333.4489	0.000211
336.2227	0.000549
338.9987	-0.000253
341.7771	0.001499
344.5577	-0.000908
347.3406	-0.000887
350.1257	0.000084
352.9131	-0.000253
355.7027	0.000380
358.4946	0.000676
361.2888	0.000486
364.0851	0.000296
366.8837	0.000950
369.6845	0.000042
372.4876	0.000760
375.2928	-0.000317
378.1003	0.000802
380.9100	-0.000084
383.7219	0.001647
386.5359	0.000000
389.3522	0.001710
392.1706	0.005067
394.9912	0.009943
397.8140	0.015981
400.6390	0.019274
403.4661	0.020794
406.2954	0.025059
409.1269	0.025924
411.9605	0.027655
414.7962	0.028479
417.6341	0.030780
420.4741	0.031645
423.3162	0.033355
426.1605	0.030843
429.0068	0.032490
431.8553	0.031751
434.7059	0.030759
437.5586	0.030653
440.4135	0.029217
443.2703	0.032236
446.1293	0.028626
448.9904	0.028035
451.8535	0.025059
454.7188	0.022356
457.5860	0.021723
460.4554	0.019950
463.3268	0.017142
466.2003	0.018092
469.0758	0.011653
471.9533	0.009605
474.8329	0.009057
477.7145	0.007051
480.5982	0.007537
483.4838	0.005784
486.3715	0.018493
489.2612	0.005637
492.1529	0.005024
495.0466	0.001858
497.9423	0.003357
500.8400	0.003589
503.7397	0.003061
506.6414	0.004307
509.5450	0.003526
512.4506	0.000591
515.3582	0.003504
518.2677	0.002280
521.1792	0.002217
524.0927	0.002977
527.0081	0.003948
529.9254	0.005679
532.8447	0.006608
535.7659	0.006924
538.6890	0.009141
541.6140	0.011041
544.5410	0.014693
547.4699	0.016065
550.4007	0.019105
553.3333	0.024024
556.2679	0.027613
559.2044	0.024826
562.1427	0.034474
565.0829	0.039857
568.0250	0.055120
570.9690	0.114484
573.9149	0.159112
576.8626	0.187169
579.8121	0.209821
582.7635	0.260212
585.7167	0.237075
588.6718	0.198210
591.6288	0.133421
594.5875	0.173806
597.5481	0.148789
600.5105	0.188583
603.4747	0.193143
606.4407	0.163862
609.4085	0.132365
612.3781	0.128671
615.3495	0.131626
618.3227	0.110579
621.2977	0.075324
624.2745	0.088096
627.2530	0.070932
630.2333	0.061559
633.2154	0.045072
636.1992	0.041884
639.1848	0.044628
642.1721	0.030862
645.1612	0.027927
648.1520	0.029470
651.1445	0.028819
654.1388	0.032762
657.1348	0.869225
660.1325	0.058986
663.1319	0.022526
666.1330	0.023941
669.1359	0.020435
672.1404	0.031139
675.1466	0.026431
678.1545	0.029745
681.1641	0.033862
684.1754	0.034791
687.1883	0.043573
690.2029	0.034580
693.2192	0.039287
696.2371	0.030590
699.2567	0.036226
702.2779	0.029745
705.3008	0.025059
708.3253	0.038105
711.3514	0.033186
714.3791	0.034010
717.4085	0.026790
720.4395	0.028289
723.4721	0.030189
726.5063	0.032806
729.5421	0.037240
732.5795	0.041335
735.6185	0.048323
738.6591	0.042391
741.7013	0.035551
744.7450	0.028626
747.7903	0.034474
750.8372	0.040660
753.8856	0.042581
756.9356	0.052144
759.9872	0.059343
763.0403	0.049421
766.0949	0.050328
769.1510	0.048492
772.2087	0.043024
775.2679	0.028626
778.3287	0.024953
781.3909	0.034284
784.4547	0.030547
787.5199	0.029386
790.5867	0.025797
793.6550	0.026684
796.7247	0.020731
799.7959	0.022040
802.8686	0.016931
805.9428	0.020794
809.0185	0.021111
812.0956	0.015833
815.1742	0.014904
818.2542	0.015010
821.3357	0.014862
824.4186	0.010534
827.5029	0.014376
830.5887	0.008719
833.6759	0.009373
836.7646	0.008339
839.8546	0.007347
842.9461	0.006819
846.0390	0.006439
849.1333	0.003969
852.2289	0.005869
855.3260	0.014165
858.4245	0.009774
861.5243	0.006418
864.6255	0.007220
867.7281	0.004982
870.8321	0.006397
873.9374	0.004898
877.0441	0.004011
880.1521	0.007874
883.2615	0.006608
886.3722	0.006629
889.4843	0.006080
892.5977	0.004349
895.7124	0.004518
898.8284	0.006207
901.9458	0.002597
905.0644	0.005067
908.1844	0.004665
911.3057	0.003716
914.4283	0.001583
917.5521	0.004602
920.6773	0.003251
923.8037	0.002090
926.9314	0.003124
930.0604	0.000739
933.1906	0.002428
936.3221	0.001436
939.4549	0.001457
942.5889	0.001182
945.7241	0.001182
948.8606	-0.000464
951.9983	0.000971
955.1373	-0.000760
958.2775	0.000084
961.4189	-0.000296
964.5615	0.000380
967.7053	0.000676
970.8504	0.000718
973.9966	0.000232
977.1440	0.001710
980.2926	0.000380
983.4424	0.001203
986.5934	-0.000253
989.7456	0.000612
992.8989	0.000106
996.0534	0.000338
999.2090	0.001013
1002.37	-0.000591
1005.52	0.000317
1008.68	-0.000338
1011.84	0.000887
1015	0.000274
1018.17	0.000908
1021.33	0.000190
1023.03	-0.001457