File: Auto_Polymerization/Spectra/spectrum_2025-06-19_11-33-43.txt
# Wavelength (nm)	Intensity (a.u.)
197.7802	0.001771
200.4334	-0.000213
203.0892	0.000209
205.7475	-0.000508
208.4084	0.001285
211.0718	0.000378
213.7376	0.002277
216.4060	0.001011
219.0769	0.001243
221.7503	0.001433
224.4262	-0.000192
227.1046	0.000652
229.7855	0.003037
232.4688	0.001792
235.1546	-0.000171
237.8429	0.000927
240.5337	0.000842
243.2269	-0.000761
245.9225	0.000652
248.6206	0.000040
251.3212	0.000695
254.0242	0.000505
256.7296	0.000948
259.4375	0.000336
262.1477	-0.000529
264.8604	0.002087
267.5755	0.001771
270.2931	0.000927
273.0130	0.001539
275.7353	-0.000445
278.4600	0.000674
281.1871	-0.000593
283.9166	0.000948
286.6484	0.000568
289.3827	0.000758
292.1193	0.000462
294.8582	0.001201
297.5995	0.001581
300.3432	0.000230
303.0892	0.000315
305.8376	-0.000192
308.5883	0.001454
311.3413	0.001771
314.0967	-0.000149
316.8543	0.001623
319.6143	0.001053
322.3766	0.001074
325.1412	0.000526
327.9082	0.001138
330.6774	0.000188
333.4489	-0.000424
336.2227	0.001307
338.9987	0.001602
341.7771	0.000863
344.5577	0.001096
347.3406	-0.000487
350.1257	0.001539
352.9131	-0.000403
355.7027	0.001940
358.4946	0.001729
361.2888	0.001349
364.0851	0.000378
366.8837	0.000125
369.6845	0.000526
372.4876	0.001813
375.2928	0.000842
378.1003	0.001264
380.9100	-0.000234
383.7219	0.000188
386.5359	0.000209
389.3522	0.002172
392.1706	0.001708
394.9912	0.003818
397.8140	0.005949
400.6390	0.008460
403.4661	0.011604
406.2954	0.014221
409.1269	0.015002
411.9605	0.015698
414.7962	0.017407
417.6341	0.017893
420.4741	0.020362
423.3162	0.023675
426.1605	0.023569
429.0068	0.023042
431.8553	0.024498
434.7059	0.024371
437.5586	0.024814
440.4135	0.023126
443.2703	0.028085
446.1293	0.027072
448.9904	0.023696
451.8535	0.024772
454.7188	0.020362
457.5860	0.020108
460.4554	0.018357
463.3268	0.016247
466.2003	0.016901
469.0758	0.011414
471.9533	0.010929
474.8329	0.010338
477.7145	0.008692
480.5982	0.009663
483.4838	0.006941
486.3715	0.017154
489.2612	0.005907
492.1529	0.006076
495.0466	0.003311
497.9423	0.004155
500.8400	0.003375
503.7397	0.002341
506.6414	0.003375
509.5450	0.003923
512.4506	0.002847
515.3582	0.003269
518.2677	0.003185
521.1792	0.004831
524.0927	0.004029
527.0081	0.003649
529.9254	0.006244
532.8447	0.006645
535.7659	0.007110
538.6890	0.010254
541.6140	0.013672
544.5410	0.015424
547.4699	0.016247
550.4007	0.019222
553.3333	0.023084
556.2679	0.028802
559.2044	0.026080
562.1427	0.032981
565.0829	0.038488
568.0250	0.055307
570.9690	0.107787
573.9149	0.151236
576.8626	0.181180
579.8121	0.207346
582.7635	0.257675
585.7167	0.229757
588.6718	0.198315
591.6288	0.132645
594.5875	0.170249
597.5481	0.152629
600.5105	0.181138
603.4747	0.185864
606.4407	0.162061
609.4085	0.135262
612.3781	0.128636
615.3495	0.127982
618.3227	0.107956
621.2977	0.076999
624.2745	0.086158
627.2530	0.069571
630.2333	0.059147
633.2154	0.046634
636.1992	0.044903
639.1848	0.043257
642.1721	0.031379
645.1612	0.026120
648.1520	0.031300
651.1445	0.029380
654.1388	0.034708
657.1348	0.868035
660.1325	0.059426
663.1319	0.020621
666.1330	0.024433
669.1359	0.023780
672.1404	0.032854
675.1466	0.029794
678.1545	0.027452
681.1641	0.034205
684.1754	0.033930
687.1883	0.045220
690.2029	0.033508
693.2192	0.039797
696.2371	0.031292
699.2567	0.037581
702.2779	0.028739
705.3008	0.024181
708.3253	0.036526
711.3514	0.034162
714.3791	0.034352
717.4085	0.027853
720.4395	0.030301
723.4721	0.030301
726.5063	0.033360
729.5421	0.036547
732.5795	0.042308
735.6185	0.048364
738.6591	0.039754
741.7013	0.035428
744.7450	0.029921
747.7903	0.032812
750.8372	0.039944
753.8856	0.045051
756.9356	0.052078
759.9872	0.058641
763.0403	0.050432
766.0949	0.047499
769.1510	0.050031
772.2087	0.042413
775.2679	0.032200
778.3287	0.026840
781.3909	0.035492
784.4547	0.030364
787.5199	0.030385
790.5867	0.027684
793.6550	0.025257
796.7247	0.019834
799.7959	0.022366
802.8686	0.016753
805.9428	0.021269
809.0185	0.022261
812.0956	0.016922
815.1742	0.014854
818.2542	0.015276
821.3357	0.016226
824.4186	0.011942
827.5029	0.016521
830.5887	0.011013
833.6759	0.009621
836.7646	0.008650
839.8546	0.008502
842.9461	0.005232
846.0390	0.007447
849.1333	0.003987
852.2289	0.006856
855.3260	0.013271
858.4245	0.010802
861.5243	0.006751
864.6255	0.006856
867.7281	0.004366
870.8321	0.005295
873.9374	0.006097
877.0441	0.005970
880.1521	0.007447
883.2615	0.007363
886.3722	0.007511
889.4843	0.005063
892.5977	0.006519
895.7124	0.005569
898.8284	0.004662
901.9458	0.004831
905.0644	0.005569
908.1844	0.003670
911.3057	0.004999
914.4283	0.004683
917.5521	0.005464
920.6773	0.004746
923.8037	0.003121
926.9314	0.003733
930.0604	0.002383
933.1906	0.001623
936.3221	0.002847
939.4549	0.002657
942.5889	0.001159
945.7241	0.002024
948.8606	0.001961
951.9983	0.001496
955.1373	0.001349
958.2775	0.002509
961.4189	0.000336
964.5615	0.001623
967.7053	0.001897
970.8504	0.002277
973.9966	0.001729
977.1440	0.001117
980.2926	0.000969
983.4424	0.000378
986.5934	0.000441
989.7456	0.000800
992.8989	0.000674
996.0534	0.001285
999.2090	-0.000234
1002.37	0.002024
1005.52	0.001433
1008.68	0.001961
1011.84	0.000948
1015	0.000083
1018.17	0.000125
1021.33	0.000188
1023.03	0.000758