File: Auto_Polymerization/Spectra/spectrum_2025-06-19_11-18-23.txt
# Wavelength (nm)	Intensity (a.u.)
197.7802	-0.001421
200.4334	-0.001759
203.0892	0.001872
205.7475	0.000668
208.4084	0.001893
211.0718	0.000816
213.7376	0.001344
216.4060	0.001872
219.0769	0.000795
221.7503	0.001555
224.4262	0.000457
227.1046	0.000141
229.7855	0.000500
232.4688	0.000225
235.1546	0.001112
237.8429	-0.000894
240.5337	0.000753
243.2269	0.001259
245.9225	-0.000155
248.6206	-0.000239
251.3212	0.000099
254.0242	-0.001337
256.7296	0.000858
259.4375	-0.000070
262.1477	0.001428
264.8604	0.000120
267.5755	0.000605
270.2931	0.000521
273.0130	0.001302
275.7353	0.000310
278.4600	0.001259
281.1871	0.000964
283.9166	-0.000598
286.6484	0.000183
289.3827	0.000668
292.1193	-0.000682
294.8582	0.000774
297.5995	0.000267
300.3432	-0.000197
303.0892	0.000732
305.8376	0.000753
308.5883	0.000943
311.3413	0.000584
314.0967	0.000858
316.8543	-0.000007
319.6143	0.000901
322.3766	0.001259
325.1412	0.000626
327.9082	0.000711
330.6774	0.000373
333.4489	0.000225
336.2227	0.000246
338.9987	0.000288
341.7771	0.001660
344.5577	0.001365
347.3406	0.000668
350.1257	0.002821
352.9131	0.000943
355.7027	0.001217
358.4946	-0.000218
361.2888	0.000753
364.0851	-0.000345
366.8837	0.000584
369.6845	-0.000788
372.4876	0.001154
375.2928	0.000331
378.1003	0.001893
380.9100	-0.000049
383.7219	0.001027
386.5359	0.001829
389.3522	0.001534
392.1706	0.002821
394.9912	0.005333
397.8140	0.009576
400.6390	0.009977
403.4661	0.014452
406.2954	0.016098
409.1269	0.017977
411.9605	0.018251
414.7962	0.019201
417.6341	0.023127
420.4741	0.023253
423.3162	0.027327
426.1605	0.025047
429.0068	0.026968
431.8553	0.025681
434.7059	0.025280
437.5586	0.026799
440.4135	0.025681
443.2703	0.031084
446.1293	0.027981
448.9904	0.025512
451.8535	0.024942
454.7188	0.019750
457.5860	0.020594
460.4554	0.017533
463.3268	0.016372
466.2003	0.015908
469.0758	0.011961
471.9533	0.008478
474.8329	0.009913
477.7145	0.007718
480.5982	0.008816
483.4838	0.007761
486.3715	0.018525
489.2612	0.006790
492.1529	0.005439
495.0466	0.004214
497.9423	0.003898
500.8400	0.002674
503.7397	0.004024
506.6414	0.003032
509.5450	0.004784
512.4506	0.003096
515.3582	0.004236
518.2677	0.003581
521.1792	0.003476
524.0927	0.003771
527.0081	0.005439
529.9254	0.005502
532.8447	0.005692
535.7659	0.007655
538.6890	0.010378
541.6140	0.011919
544.5410	0.015781
547.4699	0.017111
550.4007	0.020826
553.3333	0.021924
556.2679	0.026061
559.2044	0.024900
562.1427	0.034630
565.0829	0.038493
568.0250	0.055907
570.9690	0.111187
573.9149	0.152241
576.8626	0.178836
579.8121	0.209125
582.7635	0.259762
585.7167	0.236481
588.6718	0.198192
591.6288	0.129614
594.5875	0.171765
597.5481	0.153317
600.5105	0.184155
603.4747	0.189517
606.4407	0.167058
609.4085	0.136685
612.3781	0.128221
615.3495	0.125139
618.3227	0.109857
621.2977	0.075241
624.2745	0.090924
627.2530	0.069732
630.2333	0.061437
633.2154	0.046830
636.1992	0.045416
639.1848	0.041849
642.1721	0.032531
645.1612	0.026928
648.1520	0.029370
651.1445	0.028360
654.1388	0.033645
657.1348	0.866460
660.1325	0.061198
663.1319	0.022495
666.1330	0.024707
669.1359	0.020974
672.1404	0.034103
675.1466	0.028910
678.1545	0.029839
681.1641	0.032625
684.1754	0.031929
687.1883	0.043221
690.2029	0.033279
693.2192	0.038915
696.2371	0.027960
699.2567	0.039464
702.2779	0.031760
705.3008	0.026040
708.3253	0.038788
711.3514	0.034905
714.3791	0.036488
717.4085	0.029396
720.4395	0.027707
723.4721	0.029311
726.5063	0.035812
729.5421	0.037015
732.5795	0.041321
735.6185	0.049194
738.6591	0.039021
741.7013	0.035306
744.7450	0.030704
747.7903	0.032583
750.8372	0.041237
753.8856	0.042672
756.9356	0.053606
759.9872	0.061796
763.0403	0.049511
766.0949	0.050503
769.1510	0.049384
772.2087	0.039422
775.2679	0.031485
778.3287	0.026293
781.3909	0.035137
784.4547	0.030578
787.5199	0.031169
790.5867	0.026314
793.6550	0.023338
796.7247	0.022726
799.7959	0.020889
802.8686	0.018251
805.9428	0.021333
809.0185	0.021902
812.0956	0.016710
815.1742	0.015190
818.2542	0.014283
821.3357	0.015908
824.4186	0.012151
827.5029	0.013523
830.5887	0.010146
833.6759	0.009365
836.7646	0.008731
839.8546	0.007106
842.9461	0.004848
846.0390	0.006536
849.1333	0.005544
852.2289	0.007085
855.3260	0.013776
858.4245	0.010547
861.5243	0.006177
864.6255	0.006874
867.7281	0.005270
870.8321	0.006937
873.9374	0.006220
877.0441	0.005059
880.1521	0.008436
883.2615	0.006621
886.3722	0.006621
889.4843	0.004531
892.5977	0.006030
895.7124	0.004172
898.8284	0.005819
901.9458	0.005270
905.0644	0.005966
908.1844	0.004278
911.3057	0.004067
914.4283	0.004046
917.5521	0.003771
920.6773	0.002885
923.8037	0.004890
926.9314	0.002104
930.0604	0.003011
933.1906	0.002315
936.3221	0.002695
939.4549	0.002885
942.5889	0.001534
945.7241	0.000879
948.8606	0.001682
951.9983	0.002040
955.1373	0.001217
958.2775	0.001428
961.4189	0.001238
964.5615	0.001133
967.7053	0.000542
970.8504	0.001344
973.9966	0.000563
977.1440	0.001576
980.2926	0.001914
983.4424	0.001154
986.5934	-0.000324
989.7456	0.001365
992.8989	0.000816
996.0534	0.000331
999.2090	-0.000007
1002.37	0.000331
1005.52	0.000352
1008.68	0.000605
1011.84	0.000901
1015	0.001196
1018.17	0.000690
1021.33	0.001597
1023.03	0.000668