File: Auto_Polymerization/Spectra/pure_compounds_spectra_test/DMSO+Anisole_spectrum_2025-06-19_14-50-15.txt
# Wavelength (nm)	Intensity (a.u.)
197.7802	0.000021
200.4334	0.000105
203.0892	0.000886
205.7475	0.000316
208.4084	0.000127
211.0718	-0.000443
213.7376	0.001287
216.4060	0.000485
219.0769	0.001097
221.7503	0.001013
224.4262	0.000949
227.1046	0.000738
229.7855	0.000127
232.4688	-0.000232
235.1546	-0.001076
237.8429	0.000675
240.5337	0.000717
243.2269	-0.000464
245.9225	0.001034
248.6206	0.000548
251.3212	0.000443
254.0242	0.001055
256.7296	0.002152
259.4375	0.002215
262.1477	0.002194
264.8604	0.000823
267.5755	0.001350
270.2931	0.000380
273.0130	0.001772
275.7353	0.002025
278.4600	0.001561
281.1871	0.000063
283.9166	0.001266
286.6484	0.000928
289.3827	0.000802
292.1193	0.001034
294.8582	0.001455
297.5995	0.002405
300.3432	0.001561
303.0892	0.001202
305.8376	0.000759
308.5883	0.001434
311.3413	0.001730
314.0967	0.001835
316.8543	0.001413
319.6143	0.003080
322.3766	0.002953
325.1412	0.002320
327.9082	0.003354
330.6774	0.003945
333.4489	0.004598
336.2227	0.005316
338.9987	0.005716
341.7771	0.005442
344.5577	0.007720
347.3406	0.008353
350.1257	0.008691
352.9131	0.008649
355.7027	0.010294
358.4946	0.009471
361.2888	0.011201
364.0851	0.009619
366.8837	0.010526
369.6845	0.013057
372.4876	0.011623
375.2928	0.017761
378.1003	0.018120
380.9100	0.020060
383.7219	0.022528
386.5359	0.023562
389.3522	0.024954
392.1706	0.026367
394.9912	0.029637
397.8140	0.031789
400.6390	0.032949
403.4661	0.033371
406.2954	0.033392
409.1269	0.034130
411.9605	0.034657
414.7962	0.036155
417.6341	0.033286
420.4741	0.037041
423.3162	0.041576
426.1605	0.035691
429.0068	0.038496
431.8553	0.038750
434.7059	0.038475
437.5586	0.042947
440.4135	0.042103
443.2703	0.051997
446.1293	0.051701
448.9904	0.050330
451.8535	0.047124
454.7188	0.041513
457.5860	0.046892
460.4554	0.048832
463.3268	0.047482
466.2003	0.053621
469.0758	0.044361
471.9533	0.041323
474.8329	0.044761
477.7145	0.042757
480.5982	0.050942
483.4838	0.050857
486.3715	0.158015
489.2612	0.052271
492.1529	0.048010
495.0466	0.050478
497.9423	0.047229
500.8400	0.049613
503.7397	0.055097
506.6414	0.051343
509.5450	0.045415
512.4506	0.043939
515.3582	0.040374
518.2677	0.037041
521.1792	0.038264
524.0927	0.036408
527.0081	0.038792
529.9254	0.038243
532.8447	0.037610
535.7659	0.044593
538.6890	0.043791
541.6140	0.044023
544.5410	0.049993
547.4699	0.047208
550.4007	0.045268
553.3333	0.052334
556.2679	0.053030
559.2044	0.046280
562.1427	0.055625
565.0829	0.061046
568.0250	0.078132
570.9690	0.145970
573.9149	0.193748
576.8626	0.213513
579.8121	0.235598
582.7635	0.292636
585.7167	0.259118
588.6718	0.208661
591.6288	0.142321
594.5875	0.172949
597.5481	0.159027
600.5105	0.184509
603.4747	0.188580
606.4407	0.162908
609.4085	0.134157
612.3781	0.127935
615.3495	0.124454
618.3227	0.106988
621.2977	0.074989
624.2745	0.086485
627.2530	0.069483
630.2333	0.056743
633.2154	0.045479
636.1992	0.043601
639.1848	0.042673
642.1721	0.031539
645.1612	0.027613
648.1520	0.028525
651.1445	0.027008
654.1388	0.031393
657.1348	0.824549
660.1325	0.054059
663.1319	0.021625
666.1330	0.023922
669.1359	0.020313
672.1404	0.032379
675.1466	0.026536
678.1545	0.028730
681.1641	0.033919
684.1754	0.032358
687.1883	0.044129
690.2029	0.032717
693.2192	0.037674
696.2371	0.030523
699.2567	0.033666
702.2779	0.029764
705.3008	0.023857
708.3253	0.036725
711.3514	0.031219
714.3791	0.032696
717.4085	0.027949
720.4395	0.028477
723.4721	0.028878
726.5063	0.031704
729.5421	0.034805
732.5795	0.040374
735.6185	0.047672
738.6591	0.039235
741.7013	0.033982
744.7450	0.030185
747.7903	0.029890
750.8372	0.037421
753.8856	0.040268
756.9356	0.047820
759.9872	0.058620
763.0403	0.047947
766.0949	0.048284
769.1510	0.047293
772.2087	0.041028
775.2679	0.028392
778.3287	0.024511
781.3909	0.032822
784.4547	0.031219
787.5199	0.028899
790.5867	0.024216
793.6550	0.022613
796.7247	0.023077
799.7959	0.021284
802.8686	0.017993
805.9428	0.018415
809.0185	0.021495
812.0956	0.018077
815.1742	0.015399
818.2542	0.015462
821.3357	0.015525
824.4186	0.009745
827.5029	0.012656
830.5887	0.010294
833.6759	0.010315
836.7646	0.008796
839.8546	0.007910
842.9461	0.005927
846.0390	0.006497
849.1333	0.004535
852.2289	0.006455
855.3260	0.012298
858.4245	0.011180
861.5243	0.005611
864.6255	0.006391
867.7281	0.005231
870.8321	0.006328
873.9374	0.005189
877.0441	0.004366
880.1521	0.008817
883.2615	0.006349
886.3722	0.006813
889.4843	0.006033
892.5977	0.004894
895.7124	0.004894
898.8284	0.006497
901.9458	0.004345
905.0644	0.005105
908.1844	0.004809
911.3057	0.004767
914.4283	0.003544
917.5521	0.002784
920.6773	0.004092
923.8037	0.003923
926.9314	0.002426
930.0604	0.002848
933.1906	0.002067
936.3221	0.002025
939.4549	0.000886
942.5889	0.001055
945.7241	0.000928
948.8606	0.001477
951.9983	0.000105
955.1373	0.000991
958.2775	0.001793
961.4189	0.001223
964.5615	-0.000316
967.7053	0.000316
970.8504	0.001730
973.9966	-0.000127
977.1440	0.001477
980.2926	0.000359
983.4424	0.001160
986.5934	0.000759
989.7456	-0.000253
992.8989	-0.000042
996.0534	0.000949
999.2090	0.000570
1002.37	-0.000548
1005.52	0.001624
1008.68	0.000295
1011.84	0.001245
1015	0.000232
1018.17	0.001666
1021.33	0.000338
1023.03	-0.001181