File: Auto_Polymerization/Spectra/pure_compounds_spectra_test/DMSO+AIBN_spectrum_2025-06-19_14-43-10.txt
# Wavelength (nm)	Intensity (a.u.)
197.7802	0.000582
200.4334	-0.000368
203.0892	-0.000558
205.7475	-0.000853
208.4084	0.001068
211.0718	0.000456
213.7376	-0.000030
216.4060	-0.000135
219.0769	-0.000515
221.7503	0.001173
224.4262	0.000076
227.1046	0.000202
229.7855	0.000202
232.4688	-0.000241
235.1546	0.001553
237.8429	0.000266
240.5337	0.000076
243.2269	-0.000093
245.9225	0.000033
248.6206	0.000308
251.3212	-0.000642
254.0242	0.000941
256.7296	0.000350
259.4375	0.000139
262.1477	0.001912
264.8604	-0.000684
267.5755	0.000899
270.2931	-0.000705
273.0130	0.001954
275.7353	-0.000747
278.4600	0.000730
281.1871	-0.000663
283.9166	0.000498
286.6484	0.000350
289.3827	0.001637
292.1193	-0.000262
294.8582	0.000519
297.5995	-0.000199
300.3432	0.000941
303.0892	0.000899
305.8376	0.001236
308.5883	0.000139
311.3413	0.001004
314.0967	-0.000051
316.8543	0.000899
319.6143	-0.000030
322.3766	0.001490
325.1412	0.001384
327.9082	0.002460
330.6774	0.000456
333.4489	0.002059
336.2227	0.002081
338.9987	0.002081
341.7771	0.002270
344.5577	0.001996
347.3406	0.001490
350.1257	0.003980
352.9131	0.003917
355.7027	0.004972
358.4946	0.004191
361.2888	0.007146
364.0851	0.006133
366.8837	0.007462
369.6845	0.007948
372.4876	0.010332
375.2928	0.013604
378.1003	0.014321
380.9100	0.014828
383.7219	0.016621
386.5359	0.019217
389.3522	0.023501
392.1706	0.025401
394.9912	0.029959
397.8140	0.031563
400.6390	0.031352
403.4661	0.034307
406.2954	0.036122
409.1269	0.034476
411.9605	0.035447
414.7962	0.036671
417.6341	0.034539
420.4741	0.039667
423.3162	0.042538
426.1605	0.039604
429.0068	0.039414
431.8553	0.039098
434.7059	0.045492
437.5586	0.044205
440.4135	0.043909
443.2703	0.054124
446.1293	0.053533
448.9904	0.052309
451.8535	0.050114
454.7188	0.044521
457.5860	0.046611
460.4554	0.052541
463.3268	0.049270
466.2003	0.055854
469.0758	0.042559
471.9533	0.040913
474.8329	0.045556
477.7145	0.047645
480.5982	0.051528
483.4838	0.050346
486.3715	0.163508
489.2612	0.052625
492.1529	0.050431
495.0466	0.051169
497.9423	0.050346
500.8400	0.049966
503.7397	0.056065
506.6414	0.054905
509.5450	0.047940
512.4506	0.044901
515.3582	0.043044
518.2677	0.038528
521.1792	0.039773
524.0927	0.039752
527.0081	0.036734
529.9254	0.041145
532.8447	0.040554
535.7659	0.045133
538.6890	0.047012
541.6140	0.049819
544.5410	0.050198
547.4699	0.050621
550.4007	0.047856
553.3333	0.053385
556.2679	0.055453
559.2044	0.047096
562.1427	0.058176
565.0829	0.061954
568.0250	0.080504
570.9690	0.154897
573.9149	0.199448
576.8626	0.230029
579.8121	0.244992
582.7635	0.302353
585.7167	0.267510
588.6718	0.224119
591.6288	0.142361
594.5875	0.188200
597.5481	0.160026
600.5105	0.194067
603.4747	0.197169
606.4407	0.171506
609.4085	0.138035
612.3781	0.131387
615.3495	0.132189
618.3227	0.111063
621.2977	0.075207
624.2745	0.087089
627.2530	0.071619
630.2333	0.061236
633.2154	0.045133
636.1992	0.043698
639.1848	0.041166
642.1721	0.031482
645.1612	0.028358
648.1520	0.029606
651.1445	0.029525
654.1388	0.033617
657.1348	0.869793
660.1325	0.056242
663.1319	0.022342
666.1330	0.023925
669.1359	0.022594
672.1404	0.032218
675.1466	0.027047
678.1545	0.029094
681.1641	0.033737
684.1754	0.033674
687.1883	0.042917
690.2029	0.035468
693.2192	0.039604
696.2371	0.028524
699.2567	0.035700
702.2779	0.030782
705.3008	0.023818
708.3253	0.037135
711.3514	0.032407
714.3791	0.034666
717.4085	0.027321
720.4395	0.028081
723.4721	0.028123
726.5063	0.032661
729.5421	0.035911
732.5795	0.041736
735.6185	0.047370
738.6591	0.040005
741.7013	0.032597
744.7450	0.029368
747.7903	0.030698
750.8372	0.039878
753.8856	0.040448
756.9356	0.051676
759.9872	0.059928
763.0403	0.048911
766.0949	0.050030
769.1510	0.047539
772.2087	0.042031
775.2679	0.029390
778.3287	0.026245
781.3909	0.034581
784.4547	0.030318
787.5199	0.028967
790.5867	0.026393
793.6550	0.023396
796.7247	0.021876
799.7959	0.020272
802.8686	0.017086
805.9428	0.018479
809.0185	0.021834
812.0956	0.016790
815.1742	0.015545
818.2542	0.015229
821.3357	0.014680
824.4186	0.011155
827.5029	0.014258
830.5887	0.009889
833.6759	0.008581
836.7646	0.007399
839.8546	0.007167
842.9461	0.005035
846.0390	0.005774
849.1333	0.004550
852.2289	0.004529
855.3260	0.012569
858.4245	0.009256
861.5243	0.006512
864.6255	0.005141
867.7281	0.005035
870.8321	0.007420
873.9374	0.004719
877.0441	0.004107
880.1521	0.008665
883.2615	0.005922
886.3722	0.006154
889.4843	0.005077
892.5977	0.006512
895.7124	0.003980
898.8284	0.004402
901.9458	0.005035
905.0644	0.005710
908.1844	0.003790
911.3057	0.002840
914.4283	0.002144
917.5521	0.003115
920.6773	0.003938
923.8037	0.004043
926.9314	0.002207
930.0604	0.001658
933.1906	0.000899
936.3221	0.002608
939.4549	0.001405
942.5889	0.001384
945.7241	0.001363
948.8606	0.001827
951.9983	0.001363
955.1373	0.000645
958.2775	-0.000093
961.4189	-0.000452
964.5615	0.000772
967.7053	0.000688
970.8504	0.000329
973.9966	0.000371
977.1440	0.000835
980.2926	-0.000072
983.4424	0.000878
986.5934	-0.000452
989.7456	0.000793
992.8989	0.000308
996.0534	0.000287
999.2090	-0.000304
1002.37	0.000814
1005.52	0.000730
1008.68	-0.001191
1011.84	-0.000410
1015	-0.001634
1018.17	0.001194
1021.33	0.000434
1023.03	0.000730