File: Auto_Polymerization/Spectra/pure_compounds_spectra_test/DMSO+CTA_spectrum_2025-06-19_14-56-20.txt
# Wavelength (nm)	Intensity (a.u.)
197.7802	0.001242
200.4334	-0.000046
203.0892	0.001389
205.7475	0.001178
208.4084	0.000419
211.0718	-0.000046
213.7376	0.000334
216.4060	0.001558
219.0769	0.001073
221.7503	0.000482
224.4262	0.000883
227.1046	0.001727
229.7855	-0.001016
232.4688	0.001685
235.1546	0.000397
237.8429	-0.000341
240.5337	0.000672
243.2269	0.000714
245.9225	0.001495
248.6206	0.000376
251.3212	0.002001
254.0242	0.000714
256.7296	-0.000067
259.4375	0.000060
262.1477	0.001009
264.8604	0.000165
267.5755	0.000988
270.2931	-0.000362
273.0130	0.000081
275.7353	-0.000573
278.4600	0.000651
281.1871	0.000988
283.9166	0.000988
286.6484	0.000229
289.3827	-0.000088
292.1193	-0.000700
294.8582	0.001347
297.5995	-0.001185
300.3432	0.000123
303.0892	0.000545
305.8376	0.000123
308.5883	0.000630
311.3413	0.000229
314.0967	0.000419
316.8543	-0.000890
319.6143	0.000735
322.3766	0.001431
325.1412	0.000123
327.9082	-0.000784
330.6774	0.000608
333.4489	-0.000447
336.2227	0.000186
338.9987	0.000461
341.7771	-0.000890
344.5577	-0.000341
347.3406	0.000081
350.1257	0.001368
352.9131	0.000355
355.7027	0.000714
358.4946	0.000735
361.2888	0.000503
364.0851	0.000503
366.8837	0.000208
369.6845	0.000587
372.4876	0.001389
375.2928	-0.000594
378.1003	0.003331
380.9100	0.005800
383.7219	0.008269
386.5359	0.012764
389.3522	0.016182
392.1706	0.020867
394.9912	0.025025
397.8140	0.026249
400.6390	0.028950
403.4661	0.029984
406.2954	0.033571
409.1269	0.032917
411.9605	0.031925
414.7962	0.032495
417.6341	0.033255
420.4741	0.036251
423.3162	0.039986
426.1605	0.035133
429.0068	0.036568
431.8553	0.035597
434.7059	0.035048
437.5586	0.036652
440.4135	0.036547
443.2703	0.043764
446.1293	0.045473
448.9904	0.041210
451.8535	0.037834
454.7188	0.034310
457.5860	0.034943
460.4554	0.036441
463.3268	0.032284
466.2003	0.034922
469.0758	0.026860
471.9533	0.023505
474.8329	0.025848
477.7145	0.024202
480.5982	0.026903
483.4838	0.024476
486.3715	0.072000
489.2612	0.022492
492.1529	0.019116
495.0466	0.017934
497.9423	0.017174
500.8400	0.017195
503.7397	0.018335
506.6414	0.015676
509.5450	0.012384
512.4506	0.012299
515.3582	0.011561
518.2677	0.013334
521.1792	0.012046
524.0927	0.009852
527.0081	0.012384
529.9254	0.013903
532.8447	0.013946
535.7659	0.018018
538.6890	0.018250
541.6140	0.019074
544.5410	0.025362
547.4699	0.025257
550.4007	0.026164
553.3333	0.031777
556.2679	0.033951
559.2044	0.030448
562.1427	0.040704
565.0829	0.045304
568.0250	0.064592
570.9690	0.122457
573.9149	0.163966
576.8626	0.191632
579.8121	0.211574
582.7635	0.265323
585.7167	0.240907
588.6718	0.201403
591.6288	0.129695
594.5875	0.173294
597.5481	0.146873
600.5105	0.174729
603.4747	0.180891
606.4407	0.161666
609.4085	0.132502
612.3781	0.125707
615.3495	0.122309
618.3227	0.104118
621.2977	0.070733
624.2745	0.080652
627.2530	0.066450
630.2333	0.057038
633.2154	0.044144
636.1992	0.042392
639.1848	0.040198
642.1721	0.031379
645.1612	0.026097
648.1520	0.028533
651.1445	0.027314
654.1388	0.030486
657.1348	0.822301
660.1325	0.048623
663.1319	0.020957
666.1330	0.021997
669.1359	0.020445
672.1404	0.030954
675.1466	0.024180
678.1545	0.026713
681.1641	0.033086
684.1754	0.030490
687.1883	0.042688
690.2029	0.031630
693.2192	0.038826
696.2371	0.028190
699.2567	0.035935
702.2779	0.027472
705.3008	0.022323
708.3253	0.035154
711.3514	0.030068
714.3791	0.032453
717.4085	0.026628
720.4395	0.028063
723.4721	0.025341
726.5063	0.031355
729.5421	0.035048
732.5795	0.038045
735.6185	0.045178
738.6591	0.039586
741.7013	0.033487
744.7450	0.027578
747.7903	0.029456
750.8372	0.035977
753.8856	0.040324
756.9356	0.046592
759.9872	0.057903
763.0403	0.044714
766.0949	0.046360
769.1510	0.046127
772.2087	0.040873
775.2679	0.029773
778.3287	0.025974
781.3909	0.031883
784.4547	0.029583
787.5199	0.029878
790.5867	0.024518
793.6550	0.021901
796.7247	0.020466
799.7959	0.018039
802.8686	0.015338
805.9428	0.018673
809.0185	0.021057
812.0956	0.015275
815.1742	0.016119
818.2542	0.013439
821.3357	0.016035
824.4186	0.010337
827.5029	0.011181
830.5887	0.008649
833.6759	0.008100
836.7646	0.008606
839.8546	0.008037
842.9461	0.003795
846.0390	0.004555
849.1333	0.003394
852.2289	0.005209
855.3260	0.012342
858.4245	0.010611
861.5243	0.006159
864.6255	0.006306
867.7281	0.004702
870.8321	0.006222
873.9374	0.004323
877.0441	0.003331
880.1521	0.008585
883.2615	0.005779
886.3722	0.005842
889.4843	0.004217
892.5977	0.004217
895.7124	0.003267
898.8284	0.003183
901.9458	0.005483
905.0644	0.005314
908.1844	0.003415
911.3057	0.002866
914.4283	0.002698
917.5521	0.002972
920.6773	0.002888
923.8037	0.003858
926.9314	0.002550
930.0604	0.002951
933.1906	0.001643
936.3221	0.001896
939.4549	0.001453
942.5889	0.001326
945.7241	0.000545
948.8606	0.000208
951.9983	0.001073
955.1373	0.002001
958.2775	0.002043
961.4189	0.001284
964.5615	0.001537
967.7053	0.000397
970.8504	0.001136
973.9966	0.001474
977.1440	0.001410
980.2926	0.000123
983.4424	0.001516
986.5934	0.000250
989.7456	-0.000404
992.8989	0.000608
996.0534	0.000714
999.2090	-0.001333
1002.37	-0.000215
1005.52	0.000714
1008.68	-0.001227
1011.84	0.001579
1015	0.000144
1018.17	0.001073
1021.33	0.000123
1023.03	0.001136