File: Auto_Polymerization/Spectra/pure_compounds_spectra_test/DMSO+MMA_spectrum_2025-06-19_14-46-42.txt
# Wavelength (nm)	Intensity (a.u.)
197.7802	0.001937
200.4334	-0.000489
203.0892	0.001072
205.7475	0.000018
208.4084	-0.000383
211.0718	0.001684
213.7376	0.000503
216.4060	-0.000067
219.0769	0.000102
221.7503	0.001368
224.4262	0.000039
227.1046	-0.000004
229.7855	0.000018
232.4688	0.000292
235.1546	0.001515
237.8429	-0.000236
240.5337	0.002064
243.2269	0.001283
245.9225	0.000440
248.6206	0.000756
251.3212	0.000946
254.0242	0.000904
256.7296	0.002380
259.4375	0.000714
262.1477	0.000714
264.8604	0.000714
267.5755	0.001600
270.2931	0.000186
273.0130	0.000060
275.7353	-0.000320
278.4600	0.002338
281.1871	-0.000236
283.9166	0.001262
286.6484	-0.000362
289.3827	0.000819
292.1193	0.000418
294.8582	0.001410
297.5995	0.001093
300.3432	0.001642
303.0892	0.000967
305.8376	0.001558
308.5883	0.000798
311.3413	0.001558
314.0967	0.001558
316.8543	0.001157
319.6143	0.002444
322.3766	0.001958
325.1412	0.003077
327.9082	0.002971
330.6774	0.002971
333.4489	0.004849
336.2227	0.004743
338.9987	0.005186
341.7771	0.005629
344.5577	0.008351
347.3406	0.006916
350.1257	0.007338
352.9131	0.008941
355.7027	0.010481
358.4946	0.010355
361.2888	0.010650
364.0851	0.010481
366.8837	0.010967
369.6845	0.013709
372.4876	0.014363
375.2928	0.016768
378.1003	0.017992
380.9100	0.022000
383.7219	0.021641
386.5359	0.024320
389.3522	0.025586
392.1706	0.028730
394.9912	0.030945
397.8140	0.034236
400.6390	0.035122
403.4661	0.035016
406.2954	0.036177
409.1269	0.035586
411.9605	0.034869
414.7962	0.039088
417.6341	0.036535
420.4741	0.043370
423.3162	0.044636
426.1605	0.039299
429.0068	0.039425
431.8553	0.040691
434.7059	0.042400
437.5586	0.043476
440.4135	0.044847
443.2703	0.054615
446.1293	0.053560
448.9904	0.052906
451.8535	0.051113
454.7188	0.049298
457.5860	0.049995
460.4554	0.050649
463.3268	0.049362
466.2003	0.058623
469.0758	0.046598
471.9533	0.044573
474.8329	0.047737
477.7145	0.049720
480.5982	0.053750
483.4838	0.050691
486.3715	0.169463
489.2612	0.052843
492.1529	0.054277
495.0466	0.054129
497.9423	0.051155
500.8400	0.050501
503.7397	0.056809
506.6414	0.056176
509.5450	0.050163
512.4506	0.046239
515.3582	0.041493
518.2677	0.040965
521.1792	0.038919
524.0927	0.041451
527.0081	0.038286
529.9254	0.039742
532.8447	0.039805
535.7659	0.047632
538.6890	0.044256
541.6140	0.046514
544.5410	0.050121
547.4699	0.050838
550.4007	0.051408
553.3333	0.052167
556.2679	0.055606
559.2044	0.047526
562.1427	0.059720
565.0829	0.063686
568.0250	0.083263
570.9690	0.156974
573.9149	0.207372
576.8626	0.234059
579.8121	0.248974
582.7635	0.308170
585.7167	0.275260
588.6718	0.225726
591.6288	0.144801
594.5875	0.187711
597.5481	0.168935
600.5105	0.200326
603.4747	0.200896
606.4407	0.174969
609.4085	0.141172
612.3781	0.133388
615.3495	0.132924
618.3227	0.108769
621.2977	0.078411
624.2745	0.088854
627.2530	0.075732
630.2333	0.064066
633.2154	0.047379
636.1992	0.043982
639.1848	0.042716
642.1721	0.032603
645.1612	0.030191
648.1520	0.031816
651.1445	0.031584
654.1388	0.035549
657.1348	0.890263
660.1325	0.056437
663.1319	0.020971
666.1330	0.025138
669.1359	0.021747
672.1404	0.034826
675.1466	0.026725
678.1545	0.030101
681.1641	0.034679
684.1754	0.035143
687.1883	0.042548
690.2029	0.035670
693.2192	0.039446
696.2371	0.029299
699.2567	0.036704
702.2779	0.030839
705.3008	0.023983
708.3253	0.039847
711.3514	0.032189
714.3791	0.035966
717.4085	0.027675
720.4395	0.027485
723.4721	0.030333
726.5063	0.037506
729.5421	0.038371
732.5795	0.042548
735.6185	0.048644
738.6591	0.039700
741.7013	0.036071
744.7450	0.032210
747.7903	0.031367
750.8372	0.040754
753.8856	0.044130
756.9356	0.053307
759.9872	0.062462
763.0403	0.050079
766.0949	0.050881
769.1510	0.048455
772.2087	0.042463
775.2679	0.032611
778.3287	0.027084
781.3909	0.036535
784.4547	0.030544
787.5199	0.029257
790.5867	0.025607
793.6550	0.025755
796.7247	0.020840
799.7959	0.021430
802.8686	0.017527
805.9428	0.019764
809.0185	0.025354
812.0956	0.017802
815.1742	0.018667
818.2542	0.014173
821.3357	0.016747
824.4186	0.012886
827.5029	0.014426
830.5887	0.011431
833.6759	0.010587
836.7646	0.008456
839.8546	0.009363
842.9461	0.004954
846.0390	0.007127
849.1333	0.005903
852.2289	0.007465
855.3260	0.015291
858.4245	0.010840
861.5243	0.006431
864.6255	0.007275
867.7281	0.006072
870.8321	0.005714
873.9374	0.005482
877.0441	0.003688
880.1521	0.008266
883.2615	0.007443
886.3722	0.007127
889.4843	0.004849
892.5977	0.005946
895.7124	0.005376
898.8284	0.003773
901.9458	0.003815
905.0644	0.005017
908.1844	0.005102
911.3057	0.003161
914.4283	0.002823
917.5521	0.005249
920.6773	0.003182
923.8037	0.003456
926.9314	0.003224
930.0604	0.002929
933.1906	0.001283
936.3221	0.002338
939.4549	0.001874
942.5889	0.001283
945.7241	0.000946
948.8606	0.001747
951.9983	0.000925
955.1373	0.000904
958.2775	0.000883
961.4189	0.001832
964.5615	0.002380
967.7053	-0.000257
970.8504	0.001157
973.9966	0.001747
977.1440	0.001874
980.2926	0.000482
983.4424	0.001030
986.5934	0.000545
989.7456	0.000461
992.8989	-0.000004
996.0534	-0.000257
999.2090	0.000292
1002.37	0.001220
1005.52	0.001684
1008.68	0.000123
1011.84	0.001368
1015	-0.000404
1018.17	0.000693
1021.33	0.001051
1023.03	0.001072