File: Auto_Polymerization/Data/UV_VIS_Spectra/MRG-061-F-2_spectra_while_stopped/spectrum_2025-06-19_12-45-20_absorbance.txt
# Wavelength	Absorbance
197.78 2.878522
200.433 3.008600
203.089 0.118175
205.748 0.449149
208.408 -0.035654
211.072 3.104487
213.738 0.657047
216.406 2.902003
219.077 1.177425
221.75 3.183555
224.426 2.719331
227.105 -0.550011
229.786 2.791691
232.469 1.959041
235.155 3.406199
237.843 1.851258
240.534 -2.741152
243.227 1.348390
245.923 0.377765
248.621 2.727541
251.321 2.736397
254.024 2.872739
256.73 0.056766
259.438 1.162978
262.148 0.248743
264.86 2.662758
267.575 0.058189
270.293 -2.668386
273.013 0.566344
275.735 0.000000
278.46 2.935507
281.187 0.000000
283.917 2.866287
286.648 2.940516
289.383 0.115775
292.119 0.730805
294.858 0.791515
297.599 -0.833949
300.343 3.270446
303.089 -0.547321
305.838 3.201124
308.588 3.242293
311.341 1.361947
314.097 2.599883
316.854 0.387054
319.614 2.943989
322.377 3.460447
325.141 3.384174
327.908 0.520282
330.677 0.928766
333.449 1.073171
336.223 3.666237
338.999 0.801211
341.777 0.820707
344.558 0.735459
347.341 0.802949
350.126 1.040753
352.913 1.139461
355.703 0.637147
358.495 1.553455
361.289 4.042142
364.085 1.041310
366.884 4.063634
369.685 4.136974
372.488 4.180183
375.293 4.182329
378.1 4.253265
380.91 4.341138
383.722 4.350442
386.536 4.371972
389.352 1.896592
392.171 1.839723
394.991 1.500062
397.814 1.284271
400.639 0.785417
403.466 0.822932
406.295 0.678040
409.127 0.654957
411.961 0.571558
414.796 0.502693
417.634 0.429310
420.474 0.458717
423.316 0.384203
426.161 0.349590
429.007 0.383575
431.855 0.340519
434.706 0.356623
437.559 0.319299
440.413 0.346519
443.27 0.354529
446.129 0.396353
448.99 0.381830
451.853 0.402904
454.719 0.449346
457.586 0.467682
460.455 0.473475
463.327 0.599424
466.2 0.522208
469.076 0.646764
471.953 0.729672
474.833 0.739942
477.714 0.840471
480.598 0.901779
483.484 1.034095
486.372 0.955807
489.261 1.038413
492.153 1.118035
495.047 1.176227
497.942 1.134273
500.84 1.252681
503.74 1.353433
506.641 1.235925
509.545 1.341131
512.451 1.126996
515.358 1.152290
518.268 0.984487
521.179 1.254571
524.093 1.139007
527.008 1.095635
529.925 1.031905
532.845 0.866671
535.766 0.808123
538.689 0.724021
541.614 0.629757
544.541 0.568044
547.47 0.553208
550.401 0.468385
553.333 0.439216
556.268 0.361980
559.204 0.302974
562.143 0.233649
565.083 0.251130
568.025 0.181556
570.969 0.193602
573.915 0.150323
576.863 0.146122
579.812 0.119992
582.764 0.042742
585.717 0.072684
588.672 0.051998
591.629 0.069408
594.587 0.050194
597.548 0.051043
600.51 0.038827
603.475 0.058183
606.441 -0.000938
609.409 0.015915
612.378 0.008591
615.35 0.032483
618.323 0.008774
621.298 -0.018886
624.274 0.038128
627.253 0.024328
630.233 0.016310
633.215 0.009894
636.199 0.000710
639.185 -0.028490
642.172 0.015934
645.161 0.014352
648.152 0.017145
651.144 0.004611
654.139 0.035741
657.135 -0.041399
660.133 -0.241507
663.132 0.042527
666.133 -0.000196
669.136 0.047766
672.14 0.053796
675.147 0.001122
678.154 0.007214
681.164 0.012264
684.175 0.044827
687.188 0.030768
690.203 0.008984
693.219 0.025468
696.237 -0.013747
699.257 -0.000804
702.278 0.007658
705.301 0.015625
708.325 0.013161
711.351 -0.015171
714.379 0.013706
717.409 0.004174
720.439 -0.008477
723.472 -0.006252
726.506 0.020793
729.542 0.030441
732.58 0.019793
735.619 0.018790
738.659 -0.004548
741.701 -0.004218
744.745 0.017567
747.79 0.008593
750.837 -0.015417
753.886 0.046129
756.936 0.002415
759.987 0.006247
763.04 -0.016110
766.095 -0.011511
769.151 0.008156
772.209 0.000010
775.268 -0.002435
778.329 0.016761
781.391 0.076166
784.455 0.000322
787.52 0.022949
790.587 0.035455
793.655 0.029350
796.725 0.013055
799.796 -0.016032
802.869 -0.010283
805.943 0.026815
809.019 0.036984
812.096 -0.035267
815.174 -0.031617
818.254 0.035508
821.336 0.043132
824.419 -0.038887
827.503 0.029504
830.589 -0.028375
833.676 0.119564
836.765 -0.025540
839.855 -0.033434
842.946 -0.069357
846.039 0.062690
849.133 0.085792
852.229 0.116114
855.326 0.032623
858.424 -0.015634
861.524 0.079429
864.625 0.117242
867.728 0.155801
870.832 0.133677
873.937 0.110513
877.044 0.069442
880.152 0.111968
883.261 0.113771
886.372 0.042577
889.484 0.030610
892.598 0.151690
895.712 0.085065
898.828 0.171073
901.946 -0.020969
905.064 0.143782
908.184 0.072109
911.306 0.048427
914.428 0.095068
917.552 0.034840
920.677 -0.111811
923.804 0.149306
926.931 0.096167
930.06 3.336260
933.191 0.068646
936.322 3.152288
939.455 0.344007
942.589 0.052550
945.724 0.590948
948.861 0.524138
951.998 0.328565
955.137 0.191746
958.278 0.892224
961.419 -0.216606
964.562 0.082591
967.705 0.270333
970.85 -0.238784
973.997 0.270481
977.144 3.192567
980.293 3.008600
983.442 0.676162
986.593 0.712991
989.746 0.762124
992.899 0.393531
996.053 2.866287
999.209 -2.668386
1002.37 0.017820
1005.52 2.882525
1008.68 -0.286672
1011.84 0.502940
1015 -3.325105
1018.17 0.361906
1021.33 -2.968950
1023.03 2.812913