File: Auto_Polymerization/Data/UV_VIS_Spectra/MRG-061-F-2_spectra_while_stopped/spectrum_2025-06-19_11-43-57_absorbance.txt
# Wavelength	Absorbance
197.78 -0.191516
200.433 3.008600
203.089 3.034628
205.748 -0.084268
208.408 -0.150748
211.072 0.293583
213.738 -0.188342
216.406 0.283955
219.077 1.103848
221.75 3.183555
224.426 2.719331
227.105 0.032015
229.786 2.791691
232.469 -1.061734
235.155 0.859657
237.843 1.851258
240.534 -2.876795
243.227 2.710117
245.923 3.026125
248.621 2.727541
251.321 2.736397
254.024 2.872739
256.73 3.025715
259.438 0.336405
262.148 0.178990
264.86 2.662758
267.575 -0.355692
270.293 -3.029384
273.013 -0.039509
275.735 -2.390935
278.46 0.474609
281.187 -2.262451
283.917 -0.145283
286.648 -0.003966
289.383 0.235967
292.119 3.059185
294.858 0.554988
297.599 -0.607282
300.343 0.305715
303.089 -0.704271
305.838 0.146894
308.588 0.390423
311.341 0.258621
314.097 2.599883
316.854 0.149289
319.614 0.818508
322.377 0.457849
325.141 3.384174
327.908 0.408024
330.677 3.635484
333.449 3.655235
336.223 3.666237
338.999 0.625120
341.777 3.818094
344.558 0.840724
347.341 3.899164
350.126 1.449673
352.913 0.826819
355.703 1.530550
358.495 1.533484
361.289 0.856317
364.085 1.097221
366.884 1.129640
369.685 4.136974
372.488 2.101002
375.293 2.638261
378.1 1.733437
380.91 1.115312
383.722 4.350442
386.536 4.371972
389.352 4.400383
392.171 1.135185
394.991 0.984143
397.814 0.881199
400.639 0.744450
403.466 0.637261
406.295 0.505283
409.127 0.457533
411.961 0.412882
414.796 0.379005
417.634 0.331750
420.474 0.336571
423.316 0.322709
426.161 0.270103
429.007 0.256597
431.855 0.259291
434.706 0.287965
437.559 0.280909
440.413 0.309423
443.27 0.263316
446.129 0.305529
448.99 0.302786
451.853 0.351265
454.719 0.413162
457.586 0.432249
460.455 0.482334
463.327 0.510000
466.2 0.579622
469.076 0.578691
471.953 0.668031
474.833 0.716005
477.714 0.716831
480.598 0.966370
483.484 0.955717
486.372 1.037426
489.261 1.140583
492.153 1.060472
495.047 1.096345
497.942 1.094448
500.84 1.344943
503.74 1.162892
506.641 1.413838
509.545 1.223843
512.451 1.310578
515.358 1.003732
518.268 1.150272
521.179 1.163683
524.093 1.043251
527.008 0.967320
529.925 0.982308
532.845 0.823560
535.766 0.819734
538.689 0.662539
541.614 0.549023
544.541 0.523499
547.47 0.478640
550.401 0.405029
553.333 0.387931
556.268 0.333708
559.204 0.280566
562.143 0.223995
565.083 0.207272
568.025 0.175701
570.969 0.149392
573.915 0.131412
576.863 0.105286
579.812 0.089299
582.764 0.065774
585.717 0.066707
588.672 0.060144
591.629 0.052742
594.587 0.042022
597.548 0.034446
600.51 0.026788
603.475 0.027660
606.441 0.009712
609.409 0.021026
612.378 0.024626
615.35 0.036519
618.323 0.013684
621.298 0.003974
624.274 0.011372
627.253 -0.006774
630.233 0.020629
633.215 0.006056
636.199 -0.002005
639.185 0.012962
642.172 0.002690
645.161 0.006292
648.152 -0.003326
651.144 0.026217
654.139 0.024334
657.135 0.020435
660.133 -0.046743
663.132 0.042400
666.133 0.045795
669.136 0.047615
672.14 0.027528
675.147 0.015152
678.154 -0.006714
681.164 0.005438
684.175 0.005839
687.188 0.015463
690.203 0.025865
693.219 0.023741
696.237 0.027980
699.257 0.024715
702.278 -0.022602
705.301 0.030119
708.325 0.013624
711.351 -0.039749
714.379 -0.007015
717.409 0.019840
720.439 0.005811
723.472 -0.000155
726.506 -0.019891
729.542 -0.000200
732.58 0.023532
735.619 0.019383
738.659 -0.009184
741.701 -0.012557
744.745 -0.008438
747.79 0.023753
750.837 0.003784
753.886 -0.000546
756.936 -0.002903
759.987 0.004312
763.04 -0.001643
766.095 0.007959
769.151 0.013524
772.209 0.000881
775.268 -0.000313
778.329 -0.006534
781.391 0.025709
784.455 -0.007351
787.52 0.017001
790.587 0.025276
793.655 0.020014
796.725 0.031775
799.796 0.052938
802.869 -0.078436
805.943 0.003460
809.019 0.049227
812.096 0.036800
815.174 0.060051
818.254 0.021711
821.336 0.070794
824.419 0.024782
827.503 0.035902
830.589 0.021823
833.676 0.071861
836.765 0.045466
839.855 -0.006445
842.946 -0.054766
846.039 0.016033
849.133 0.082743
852.229 -0.074133
855.326 0.078998
858.424 -0.089893
861.524 0.086995
864.625 0.069889
867.728 -0.059455
870.832 0.029436
873.937 0.080770
877.044 -0.019402
880.152 0.035398
883.261 -0.087137
886.372 -0.016831
889.484 -0.029494
892.598 0.033538
895.712 -0.007919
898.828 0.031959
901.946 -0.043743
905.064 0.133072
908.184 -0.117563
911.306 0.236163
914.428 -0.004009
917.552 -0.002873
920.677 0.195327
923.804 0.086754
926.931 -0.243321
930.06 -0.077040
933.191 -0.114510
936.322 -0.094702
939.455 0.078995
942.589 0.456279
945.724 0.661998
948.861 -0.079103
951.998 -0.069270
955.137 2.840106
958.278 -0.301677
961.419 -0.247155
964.562 0.131293
967.705 0.066641
970.85 0.823627
973.997 -0.172856
977.144 0.130362
980.293 0.291762
983.442 -0.228189
986.593 0.202153
989.746 -0.672723
992.899 -0.234083
996.053 2.866287
999.209 -2.426511
1002.37 2.599883
1005.52 0.331685
1008.68 0.805474
1011.84 1.123968
1015 0.000000
1018.17 0.161687
1021.33 -2.781755
1023.03 2.812913