File: Auto_Polymerization/Data/UV_VIS_Spectra/MRG-061-F-2_spectra_while_stopped/spectrum_2025-06-19_10-56-36_absorbance.txt
# Wavelength	Absorbance
197.78 0.090353
200.433 3.008600
203.089 0.927418
205.748 0.506054
208.408 0.088857
211.072 0.098021
213.738 -0.139078
216.406 0.020048
219.077 2.990339
221.75 0.652076
224.426 2.719331
227.105 2.294466
229.786 -0.339607
232.469 1.959041
235.155 3.406199
237.843 -0.589651
240.534 0.000000
243.227 2.710117
245.923 0.132363
248.621 0.698157
251.321 -0.537992
254.024 -0.133727
256.73 3.025715
259.438 0.037872
262.148 1.346442
264.86 0.728259
267.575 2.498311
270.293 -2.893762
273.013 2.799341
275.735 0.000000
278.46 0.053552
281.187 0.000000
283.917 -0.327949
286.648 2.940516
289.383 0.317420
292.119 0.883093
294.858 0.115775
297.599 2.269513
300.343 0.237424
303.089 2.357935
305.838 0.343791
308.588 1.212909
311.341 -0.010836
314.097 0.158974
316.854 1.064388
319.614 2.943989
322.377 0.987690
325.141 3.384174
327.908 3.508395
330.677 3.635484
333.449 1.097727
336.223 3.666237
338.999 1.298821
341.777 3.818094
344.558 1.710738
347.341 1.250804
350.126 3.910571
352.913 1.079953
355.703 3.991448
358.495 3.959995
361.289 1.354613
364.085 1.150128
366.884 1.290579
369.685 1.903978
372.488 1.492654
375.293 2.075119
378.1 2.318767
380.91 1.112994
383.722 2.415943
386.536 1.502154
389.352 1.054225
392.171 0.764239
394.991 0.516994
397.814 0.390202
400.639 0.326069
403.466 0.245565
406.295 0.168649
409.127 0.168509
411.961 0.122098
414.796 0.143229
417.634 0.123095
420.474 0.101066
423.316 0.087705
426.161 0.125120
429.007 0.142610
431.855 0.132483
434.706 0.157045
437.559 0.164075
440.413 0.225592
443.27 0.191469
446.129 0.262116
448.99 0.265339
451.853 0.274180
454.719 0.355768
457.586 0.386506
460.455 0.401736
463.327 0.451034
466.2 0.500774
469.076 0.562209
471.953 0.656104
474.833 0.775410
477.714 0.756685
480.598 0.799060
483.484 0.905629
486.372 0.945059
489.261 1.077790
492.153 0.996853
495.047 1.075707
497.942 1.049727
500.84 1.279774
503.74 1.083428
506.641 1.247976
509.545 1.129540
512.451 1.047925
515.358 1.426332
518.268 1.152055
521.179 1.299990
524.093 0.983265
527.008 0.927853
529.925 0.889787
532.845 0.977124
535.766 0.737653
538.689 0.738782
541.614 0.601070
544.541 0.563557
547.47 0.448588
550.401 0.408859
553.333 0.370013
556.268 0.335325
559.204 0.289225
562.143 0.217654
565.083 0.178619
568.025 0.165594
570.969 0.125612
573.915 0.120158
576.863 0.091968
579.812 0.083344
582.764 0.049838
585.717 0.048666
588.672 0.034707
591.629 0.046974
594.587 0.037642
597.548 0.036488
600.51 0.032517
603.475 0.025644
606.441 -0.000315
609.409 0.012372
612.378 0.023481
615.35 0.016843
618.323 0.023458
621.298 0.001237
624.274 0.008118
627.253 0.019276
630.233 0.008827
633.215 0.027363
636.199 0.010681
639.185 0.009811
642.172 0.034250
645.161 0.021436
648.152 -0.016284
651.144 0.031369
654.139 0.022485
657.135 0.020125
660.133 -0.050735
663.132 -0.000115
666.133 0.005143
669.136 0.039280
672.14 0.003742
675.147 0.050311
678.154 -0.010281
681.164 0.043834
684.175 0.025564
687.188 0.018723
690.203 0.032439
693.219 0.013529
696.237 0.014689
699.257 0.017902
702.278 -0.011768
705.301 0.004190
708.325 0.008859
711.351 -0.008591
714.379 -0.033948
717.409 0.006565
720.439 0.036176
723.472 -0.016078
726.506 0.013873
729.542 0.006665
732.58 0.020743
735.619 0.010923
738.659 0.000658
741.701 0.019449
744.745 0.010296
747.79 0.050819
750.837 0.020785
753.886 0.028812
756.936 -0.003555
759.987 0.023807
763.04 0.000283
766.095 -0.002638
769.151 0.010709
772.209 0.003186
775.268 -0.012864
778.329 0.016092
781.391 0.045566
784.455 -0.024303
787.52 -0.017113
790.587 0.019222
793.655 0.025797
796.725 0.030726
799.796 0.012081
802.869 0.032248
805.943 -0.012479
809.019 0.044030
812.096 0.022498
815.174 0.049764
818.254 0.018866
821.336 0.056041
824.419 0.037661
827.503 0.032248
830.589 -0.034034
833.676 0.091862
836.765 0.059074
839.855 0.033387
842.946 -0.099815
846.039 0.127547
849.133 0.102260
852.229 0.035337
855.326 0.103213
858.424 -0.072969
861.524 0.062065
864.625 0.073795
867.728 -0.017566
870.832 0.062106
873.937 -0.026320
877.044 0.047958
880.152 0.104226
883.261 0.044720
886.372 0.062524
889.484 0.035075
892.598 -0.001568
895.712 0.098223
898.828 -0.048221
901.946 0.285567
905.064 0.136724
908.184 0.153028
911.306 0.165289
914.428 0.105725
917.552 0.065740
920.677 -0.135026
923.804 0.723448
926.931 -0.059921
930.06 0.071678
933.191 0.269246
936.322 -0.086510
939.455 0.241723
942.589 -0.031126
945.724 0.130875
948.861 0.896074
951.998 -0.043677
955.137 -0.076348
958.278 -0.343539
961.419 -0.295689
964.562 0.024709
967.705 0.034686
970.85 0.178638
973.997 1.060258
977.144 0.054581
980.293 0.070581
983.442 -0.470327
986.593 2.820201
989.746 -0.972363
992.899 -0.038969
996.053 2.866287
999.209 0.000000
1002.37 -0.588483
1005.52 -0.010682
1008.68 2.691965
1011.84 -0.096793
1015 -0.301030
1018.17 3.231724
1021.33 0.000000
1023.03 0.106196