File: Auto_Polymerization/Data/UV_VIS_Spectra/MRG-061-F-2_spectra_while_stopped/spectrum_2025-06-19_11-23-30_absorbance.txt
# Wavelength	Absorbance
197.78 0.109144
200.433 0.032709
203.089 3.034628
205.748 -0.000902
208.408 -0.100702
211.072 0.554259
213.738 -0.036589
216.406 0.238302
219.077 0.111817
221.75 1.592490
224.426 -0.403212
227.105 0.516315
229.786 0.127990
232.469 -0.199321
235.155 0.231558
237.843 -1.204120
240.534 0.000000
243.227 2.710117
245.923 -0.060591
248.621 0.008210
251.321 -0.154025
254.024 2.872739
256.73 -0.261638
259.438 0.657828
262.148 2.989895
264.86 0.264818
267.575 2.799341
270.293 -1.778151
273.013 -0.186086
275.735 -2.683047
278.46 0.021693
281.187 -2.827369
283.917 2.866287
286.648 -0.258141
289.383 -0.117751
292.119 1.050584
294.858 -0.212537
297.599 -0.911186
300.343 3.270446
303.089 0.088422
305.838 0.298577
308.588 3.242293
311.341 0.746217
314.097 2.599883
316.854 3.093772
319.614 0.214419
322.377 1.142383
325.141 0.470360
327.908 0.230557
330.677 0.357645
333.449 3.655235
336.223 1.657637
338.999 0.457108
341.777 3.818094
344.558 2.108678
347.341 3.899164
350.126 0.906250
352.913 0.857839
355.703 3.991448
358.495 1.742511
361.289 1.340574
364.085 0.997931
366.884 1.000300
369.685 4.136974
372.488 1.395566
375.293 2.404178
378.1 1.757721
380.91 1.319122
383.722 1.102469
386.536 1.405831
389.352 1.001055
392.171 1.121363
394.991 0.875393
397.814 0.594572
400.639 0.517658
403.466 0.545014
406.295 0.348589
409.127 0.320333
411.961 0.273928
414.796 0.267321
417.634 0.243522
420.474 0.202832
423.316 0.207229
426.161 0.203492
429.007 0.186803
431.855 0.194279
434.706 0.236076
437.559 0.218892
440.413 0.244927
443.27 0.222619
446.129 0.258860
448.99 0.274740
451.853 0.347142
454.719 0.366389
457.586 0.387217
460.455 0.397541
463.327 0.480502
466.2 0.539428
469.076 0.536224
471.953 0.620061
474.833 0.653255
477.714 0.724350
480.598 0.856296
483.484 1.006149
486.372 0.935267
489.261 1.008248
492.153 0.922187
495.047 1.039483
497.942 1.050416
500.84 1.247307
503.74 1.064603
506.641 1.480153
509.545 1.112794
512.451 1.114062
515.358 0.996951
518.268 1.049817
521.179 1.104682
524.093 1.014965
527.008 0.999611
529.925 0.904692
532.845 0.802322
535.766 0.662687
538.689 0.651098
541.614 0.600618
544.541 0.587903
547.47 0.442234
550.401 0.353099
553.333 0.360050
556.268 0.266138
559.204 0.264897
562.143 0.200812
565.083 0.195981
568.025 0.152248
570.969 0.143060
573.915 0.125095
576.863 0.102473
579.812 0.077333
582.764 0.059533
585.717 0.066324
588.672 0.038188
591.629 0.048117
594.587 0.030469
597.548 0.033456
600.51 0.022354
603.475 0.025169
606.441 0.004546
609.409 0.007329
612.378 0.016137
615.35 0.019830
618.323 -0.000435
621.298 0.013456
624.274 0.003159
627.253 0.001466
630.233 0.006462
633.215 -0.003230
636.199 0.001599
639.185 -0.029480
642.172 0.013272
645.161 0.020559
648.152 0.002446
651.144 0.019682
654.139 0.036606
657.135 0.023560
660.133 -0.060289
663.132 -0.015304
666.133 0.007275
669.136 0.012325
672.14 0.018425
675.147 -0.012919
678.154 0.024148
681.164 0.031864
684.175 0.009419
687.188 0.007141
690.203 0.015472
693.219 -0.022417
696.237 0.010840
699.257 -0.015458
702.278 -0.006824
705.301 -0.014448
708.325 0.024307
711.351 -0.064725
714.379 -0.024406
717.409 0.004798
720.439 -0.005031
723.472 -0.009815
726.506 0.016869
729.542 -0.016228
732.58 0.022712
735.619 0.023184
738.659 -0.006924
741.701 -0.029640
744.745 -0.017081
747.79 0.004791
750.837 -0.023662
753.886 0.001624
756.936 0.005908
759.987 0.015701
763.04 -0.027047
766.095 0.002298
769.151 0.014750
772.209 -0.007179
775.268 -0.030870
778.329 0.013371
781.391 0.033225
784.455 -0.000852
787.52 -0.005367
790.587 0.025695
793.655 0.006012
796.725 0.014577
799.796 -0.002330
802.869 -0.027008
805.943 0.000663
809.019 0.020159
812.096 -0.014515
815.174 -0.011389
818.254 -0.015358
821.336 0.090873
824.419 -0.040739
827.503 0.003480
830.589 0.061415
833.676 0.107468
836.765 -0.000741
839.855 -0.011043
842.946 -0.095064
846.039 -0.041542
849.133 0.122279
852.229 0.006035
855.326 0.035013
858.424 -0.084485
861.524 0.213229
864.625 0.014144
867.728 0.056151
870.832 -0.000271
873.937 0.009670
877.044 -0.072214
880.152 0.039768
883.261 -0.078462
886.372 -0.051973
889.484 0.027009
892.598 0.017411
895.712 0.077337
898.828 0.013388
901.946 0.061578
905.064 0.355582
908.184 -0.038508
911.306 0.023240
914.428 -0.031580
917.552 0.089991
920.677 0.082974
923.804 -0.031150
926.931 -0.047835
930.06 -0.205195
933.191 0.314569
936.322 -0.254422
939.455 0.055475
942.589 0.054196
945.724 0.468581
948.861 0.066633
951.998 -0.139514
955.137 0.831506
958.278 -0.087091
961.419 -0.521429
964.562 0.257657
967.705 0.050885
970.85 2.710117
973.997 2.994757
977.144 -0.049974
980.293 1.417536
983.442 0.010777
986.593 0.460366
989.746 -0.539849
992.899 0.342541
996.053 0.000000
999.209 -1.255273
1002.37 -0.598774
1005.52 1.275070
1008.68 -0.174322
1011.84 -0.132165
1015 0.000000
1018.17 0.495328
1021.33 -2.902547
1023.03 2.812913