File: Auto_Polymerization/Data/UV_VIS_Spectra/MRG-061-F-2_spectra_while_stopped/spectrum_2025-06-19_13-00-40.txt
# Wavelength (nm)	Intensity (a.u.)
197.7802	0.000410
200.4334	0.000473
203.0892	0.000347
205.7475	0.000283
208.4084	0.000727
211.0718	-0.001427
213.7376	0.001233
216.4060	0.000537
219.0769	0.000537
221.7503	-0.001089
224.4262	0.002184
227.1046	0.000537
229.7855	0.000537
232.4688	0.000874
235.1546	-0.001279
237.8429	-0.000772
240.5337	0.000959
243.2269	-0.001152
245.9225	0.000811
248.6206	0.000706
251.3212	-0.000266
254.0242	0.000473
256.7296	0.000642
259.4375	-0.000709
262.1477	-0.000160
264.8604	0.000874
267.5755	0.000304
270.2931	-0.000646
273.0130	-0.000245
275.7353	-0.000498
278.4600	0.000874
281.1871	0.000874
283.9166	-0.000097
286.6484	-0.000730
289.3827	0.001318
292.1193	-0.000266
294.8582	0.000642
297.5995	0.000874
300.3432	-0.000097
303.0892	-0.000836
305.8376	0.000262
308.5883	0.000600
311.3413	-0.000392
314.0967	0.002289
316.8543	0.000389
319.6143	0.001930
322.3766	-0.000012
325.1412	0.000452
327.9082	0.000494
330.6774	0.000558
333.4489	0.001191
336.2227	0.000537
338.9987	0.001571
341.7771	0.001064
344.5577	0.000030
347.3406	-0.001152
350.1257	0.001022
352.9131	0.000304
355.7027	0.000980
358.4946	-0.000371
361.2888	0.001740
364.0851	0.001043
366.8837	0.000220
369.6845	0.000896
372.4876	0.001782
375.2928	0.000811
378.1003	-0.000582
380.9100	-0.000561
383.7219	0.002352
386.5359	-0.000498
389.3522	0.001466
392.1706	0.000663
394.9912	0.002796
397.8140	0.003809
400.6390	0.003704
403.4661	0.003598
406.2954	0.005646
409.1269	0.008011
411.9605	0.009489
414.7962	0.010671
417.6341	0.012023
420.4741	0.014957
423.3162	0.016583
426.1605	0.016689
429.0068	0.016098
431.8553	0.018652
434.7059	0.019645
437.5586	0.021144
440.4135	0.021249
443.2703	0.024775
446.1293	0.023276
448.9904	0.021439
451.8535	0.019518
454.7188	0.016963
457.5860	0.016288
460.4554	0.018568
463.3268	0.014493
466.2003	0.014641
469.0758	0.010650
471.9533	0.008475
474.8329	0.008307
477.7145	0.006723
480.5982	0.008307
483.4838	0.005203
486.3715	0.016562
489.2612	0.004971
492.1529	0.004147
495.0466	0.002184
497.9423	0.003556
500.8400	0.002416
503.7397	0.003345
506.6414	0.004654
509.5450	0.003281
512.4506	0.002923
515.3582	0.003873
518.2677	0.002901
521.1792	0.003915
524.0927	0.004654
527.0081	0.004443
529.9254	0.005731
532.8447	0.005182
535.7659	0.009447
538.6890	0.009214
541.6140	0.011727
544.5410	0.015211
547.4699	0.017259
550.4007	0.017111
553.3333	0.020426
556.2679	0.024015
559.2044	0.022769
562.1427	0.033136
565.0829	0.038288
568.0250	0.052772
570.9690	0.104226
573.9149	0.145715
576.8626	0.171474
579.8121	0.194361
582.7635	0.251242
585.7167	0.230973
588.6718	0.189484
591.6288	0.125488
594.5875	0.158024
597.5481	0.145483
600.5105	0.175739
603.4747	0.185831
606.4407	0.159713
609.4085	0.132603
612.3781	0.127705
615.3495	0.123757
618.3227	0.106528
621.2977	0.075005
624.2745	0.085034
627.2530	0.068671
630.2333	0.060521
633.2154	0.044200
636.1992	0.042553
639.1848	0.039048
642.1721	0.031556
645.1612	0.028613
648.1520	0.027968
651.1445	0.028214
654.1388	0.032029
657.1348	0.860107
660.1325	0.059703
663.1319	0.021380
666.1330	0.022966
669.1359	0.020257
672.1404	0.032250
675.1466	0.027056
678.1545	0.029061
681.1641	0.034382
684.1754	0.035015
687.1883	0.044284
690.2029	0.035902
693.2192	0.037528
696.2371	0.027731
699.2567	0.033601
702.2779	0.028787
705.3008	0.024290
708.3253	0.036831
711.3514	0.032630
714.3791	0.036726
717.4085	0.027710
720.4395	0.028386
723.4721	0.028766
726.5063	0.033031
729.5421	0.035818
732.5795	0.042490
735.6185	0.049141
738.6591	0.040062
741.7013	0.034298
744.7450	0.028238
747.7903	0.031363
750.8372	0.038541
753.8856	0.043165
756.9356	0.052392
759.9872	0.060690
763.0403	0.049373
766.0949	0.046987
769.1510	0.047663
772.2087	0.040611
775.2679	0.030708
778.3287	0.026401
781.3909	0.036409
784.4547	0.031743
787.5199	0.029315
790.5867	0.026908
793.6550	0.025092
796.7247	0.021798
799.7959	0.020890
802.8686	0.016478
805.9428	0.020658
809.0185	0.023340
812.0956	0.018019
815.1742	0.016161
818.2542	0.014007
821.3357	0.016288
824.4186	0.011579
827.5029	0.014746
830.5887	0.009088
833.6759	0.008391
836.7646	0.007779
839.8546	0.008792
842.9461	0.005287
846.0390	0.005900
849.1333	0.005034
852.2289	0.007230
855.3260	0.013015
858.4245	0.010946
861.5243	0.005393
864.6255	0.007061
867.7281	0.007272
870.8321	0.005393
873.9374	0.003978
877.0441	0.004675
880.1521	0.009130
883.2615	0.005815
886.3722	0.006005
889.4843	0.005667
892.5977	0.004886
895.7124	0.004464
898.8284	0.006364
901.9458	0.003936
905.0644	0.005224
908.1844	0.003113
911.3057	0.003704
914.4283	0.002965
917.5521	0.005161
920.6773	0.003493
923.8037	0.002775
926.9314	0.001825
930.0604	0.003091
933.1906	0.002564
936.3221	0.001191
939.4549	0.002374
942.5889	-0.000055
945.7241	0.000790
948.8606	0.002268
951.9983	0.001867
955.1373	0.002500
958.2775	0.001001
961.4189	0.000410
964.5615	0.001276
967.7053	-0.000308
970.8504	0.001276
973.9966	0.000537
977.1440	0.001487
980.2926	0.000853
983.4424	0.002120
986.5934	0.000579
989.7456	0.000093
992.8989	0.001339
996.0534	0.000959
999.2090	0.000769
1002.37	0.001276
1005.52	0.001402
1008.68	0.001993
1011.84	0.002184
1015	-0.000667
1018.17	0.001255
1021.33	-0.000625
1023.03	-0.000308