File: Auto_Polymerization/Data/UV_VIS_Spectra/MRG-061-F-2_spectra_while_stopped/spectrum_2025-06-19_11-01-43_absorbance.txt
# Wavelength	Absorbance
197.78 -0.447404
200.433 3.008600
203.089 -0.077641
205.748 0.071485
208.408 2.970812
211.072 -0.097183
213.738 2.985426
216.406 -0.005946
219.077 0.800007
221.75 0.509613
224.426 -0.188617
227.105 2.294466
229.786 0.030515
232.469 -0.817660
235.155 3.406199
237.843 1.006160
240.534 0.000000
243.227 0.036175
245.923 3.026125
248.621 2.727541
251.321 0.043550
254.024 0.025166
256.73 3.025715
259.438 0.283044
262.148 -0.205728
264.86 -0.128933
267.575 0.088377
270.293 0.000000
273.013 2.799341
275.735 0.000000
278.46 -0.183749
281.187 -2.941014
283.917 2.866287
286.648 2.940516
289.383 0.227244
292.119 0.448524
294.858 3.074816
297.599 0.310472
300.343 1.311405
303.089 -0.418766
305.838 0.270684
308.588 0.631633
311.341 0.130905
314.097 -0.308065
316.854 0.382809
319.614 0.734474
322.377 0.600109
325.141 3.384174
327.908 0.815548
330.677 0.829304
333.449 3.655235
336.223 1.821139
338.999 0.879393
341.777 3.818094
344.558 0.621068
347.341 1.484190
350.126 0.751305
352.913 1.105166
355.703 1.480903
358.495 1.396514
361.289 1.101128
364.085 4.019947
366.884 1.203296
369.685 4.136974
372.488 1.261105
375.293 1.070059
378.1 1.368470
380.91 4.341138
383.722 1.399104
386.536 1.808491
389.352 1.029130
392.171 1.255257
394.991 0.535575
397.814 0.428878
400.639 0.364105
403.466 0.303449
406.295 0.229892
409.127 0.193388
411.961 0.185831
414.796 0.156417
417.634 0.156839
420.474 0.132592
423.316 0.127138
426.161 0.158990
429.007 0.120329
431.855 0.129029
434.706 0.154756
437.559 0.133701
440.413 0.209539
443.27 0.217626
446.129 0.241048
448.99 0.254066
451.853 0.305726
454.719 0.327749
457.586 0.396065
460.455 0.425997
463.327 0.467755
466.2 0.538452
469.076 0.534312
471.953 0.602823
474.833 0.685279
477.714 0.716122
480.598 0.869075
483.484 0.909419
486.372 0.993686
489.261 1.063132
492.153 1.054808
495.047 1.092643
497.942 1.286079
500.84 1.393191
503.74 1.278015
506.641 1.201270
509.545 1.123807
512.451 1.333856
515.358 1.259005
518.268 0.945300
521.179 1.094011
524.093 1.036312
527.008 0.979491
529.925 0.825740
532.845 0.976603
535.766 0.691880
538.689 0.672605
541.614 0.564290
544.541 0.553755
547.47 0.516184
550.401 0.425934
553.333 0.372820
556.268 0.315539
559.204 0.211095
562.143 0.242933
565.083 0.168165
568.025 0.165737
570.969 0.136158
573.915 0.123622
576.863 0.092123
579.812 0.082416
582.764 0.050501
585.717 0.053607
588.672 0.044911
591.629 0.039086
594.587 0.025115
597.548 0.031267
600.51 0.029796
603.475 0.023855
606.441 0.003059
609.409 0.014693
612.378 -0.007594
615.35 0.009024
618.323 -0.000435
621.298 -0.006977
624.274 0.006326
627.253 0.006579
630.233 0.010912
633.215 -0.000488
636.199 -0.006483
639.185 0.011400
642.172 -0.003824
645.161 -0.026450
648.152 -0.011701
651.144 0.005887
654.139 0.008163
657.135 0.016911
660.133 -0.041261
663.132 -0.010138
666.133 0.012706
669.136 0.056949
672.14 0.009207
675.147 0.020893
678.154 0.005943
681.164 0.024778
684.175 0.027776
687.188 0.011709
690.203 0.002104
693.219 0.008306
696.237 -0.018709
699.257 0.021296
702.278 -0.008282
705.301 -0.000762
708.325 0.021565
711.351 -0.073281
714.379 -0.005616
717.409 -0.021067
720.439 0.013088
723.472 -0.003968
726.506 0.002043
729.542 -0.005578
732.58 0.038731
735.619 0.018253
738.659 0.011294
741.701 0.004546
744.745 0.016288
747.79 0.001637
750.837 0.011727
753.886 0.031476
756.936 0.018296
759.987 0.012104
763.04 -0.010084
766.095 -0.002844
769.151 0.012219
772.209 -0.012382
775.268 -0.017779
778.329 -0.004305
781.391 0.024983
784.455 -0.017034
787.52 0.010015
790.587 0.026482
793.655 0.013437
796.725 0.034839
799.796 0.005651
802.869 -0.040168
805.943 0.005939
809.019 0.066829
812.096 -0.045671
815.174 0.044134
818.254 0.072319
821.336 0.035680
824.419 0.023297
827.503 -0.000088
830.589 0.058784
833.676 0.011841
836.765 0.148737
839.855 0.000765
842.946 0.122323
846.039 0.024132
849.133 -0.015040
852.229 0.128323
855.326 0.058822
858.424 0.024512
861.524 0.108783
864.625 -0.017542
867.728 -0.009246
870.832 0.092461
873.937 0.105825
877.044 0.051667
880.152 0.008878
883.261 0.013436
886.372 0.098085
889.484 -0.019209
892.598 0.062731
895.712 0.008405
898.828 0.042962
901.946 -0.082104
905.064 -0.057292
908.184 -0.146483
911.306 0.141924
914.428 0.022877
917.552 -0.093512
920.677 0.006700
923.804 0.387784
926.931 0.045757
930.06 -0.026976
933.191 0.034484
936.322 -0.031551
939.455 -0.033401
942.589 -0.064374
945.724 0.389759
948.861 0.230260
951.998 0.112119
955.137 -0.349665
958.278 -0.467964
961.419 -0.512329
964.562 -0.077561
967.705 0.857822
970.85 -0.208961
973.997 2.994757
977.144 0.654748
980.293 1.318404
983.442 -0.082187
986.593 -0.510212
989.746 2.123852
992.899 -0.368483
996.053 -0.095134
999.209 0.000000
1002.37 2.599883
1005.52 0.100410
1008.68 2.691965
1011.84 -0.012639
1015 -3.207365
1018.17 0.621064
1021.33 -2.653213
1023.03 2.812913