File: Auto_Polymerization/Data/UV_VIS_Spectra/MRG-061-F-2_spectra_while_stopped/spectrum_2025-06-19_12-40-13_absorbance.txt
# Wavelength	Absorbance
197.78 2.878522
200.433 0.633852
203.089 0.849937
205.748 2.682145
208.408 -0.230039
211.072 3.104487
213.738 -0.022748
216.406 2.902003
219.077 0.094916
221.75 0.770255
224.426 -0.113816
227.105 0.340224
229.786 2.791691
232.469 -1.030408
235.155 1.991226
237.843 1.851258
240.534 -2.447158
243.227 0.262959
245.923 0.578966
248.621 0.888692
251.321 -0.280637
254.024 -0.135435
256.73 0.045712
259.438 2.975891
262.148 0.317797
264.86 0.215600
267.575 0.291485
270.293 -2.819544
273.013 2.799341
275.735 -2.833147
278.46 0.890184
281.187 -1.838849
283.917 2.866287
286.648 2.940516
289.383 3.074816
292.119 3.059185
294.858 3.074816
297.599 -0.937313
300.343 0.025674
303.089 2.357935
305.838 0.510042
308.588 3.242293
311.341 0.476902
314.097 0.121317
316.854 0.274228
319.614 0.219303
322.377 0.417871
325.141 1.338851
327.908 0.313326
330.677 0.716929
333.449 0.477987
336.223 1.711995
338.999 3.739731
341.777 3.818094
344.558 0.747895
347.341 3.899164
350.126 0.876344
352.913 3.896857
355.703 3.292478
358.495 3.959995
361.289 1.667394
364.085 4.019947
366.884 2.648660
369.685 4.136974
372.488 1.890149
375.293 1.647035
378.1 1.003334
380.91 1.176190
383.722 2.305119
386.536 4.371972
389.352 1.987083
392.171 1.792782
394.991 1.179646
397.814 1.027664
400.639 0.849712
403.466 0.706334
406.295 0.671978
409.127 0.639668
411.961 0.557802
414.796 0.517082
417.634 0.425137
420.474 0.411675
423.316 0.446661
426.161 0.386228
429.007 0.338144
431.855 0.314378
434.706 0.340869
437.559 0.333852
440.413 0.344378
443.27 0.333075
446.129 0.353400
448.99 0.377311
451.853 0.393233
454.719 0.406075
457.586 0.446403
460.455 0.506992
463.327 0.532239
466.2 0.653111
469.076 0.578320
471.953 0.651943
474.833 0.747695
477.714 0.757743
480.598 0.873061
483.484 0.922277
486.372 1.010401
489.261 1.042077
492.153 1.042735
495.047 1.118124
497.942 1.064332
500.84 1.169553
503.74 1.159171
506.641 1.327243
509.545 1.050499
512.451 1.084099
515.358 1.125028
518.268 1.257957
521.179 0.982452
524.093 0.985228
527.008 0.927659
529.925 0.818474
532.845 0.947085
535.766 0.769534
538.689 0.744477
541.614 0.645365
544.541 0.573397
547.47 0.499230
550.401 0.419217
553.333 0.396457
556.268 0.349275
559.204 0.279287
562.143 0.233505
565.083 0.227802
568.025 0.172771
570.969 0.171822
573.915 0.148086
576.863 0.120426
579.812 0.093300
582.764 0.083524
585.717 0.080582
588.672 0.061102
591.629 0.064389
594.587 0.051604
597.548 0.045628
600.51 0.041012
603.475 0.039958
606.441 0.016157
609.409 0.039036
612.378 0.032095
615.35 0.033533
618.323 0.033186
621.298 0.021468
624.274 0.022013
627.253 0.009556
630.233 0.027282
633.215 0.025755
636.199 -0.005968
639.185 0.008042
642.172 0.003464
645.161 -0.014869
648.152 0.034193
651.144 -0.013491
654.139 0.017840
657.135 0.026042
660.133 -0.045402
663.132 0.047110
666.133 0.030529
669.136 0.042012
672.14 0.016579
675.147 0.002940
678.154 -0.005274
681.164 -0.014895
684.175 0.042610
687.188 -0.003239
690.203 -0.022363
693.219 0.008417
696.237 0.021412
699.257 0.005209
702.278 0.021184
705.301 -0.003992
708.325 0.021435
711.351 -0.040942
714.379 -0.030373
717.409 -0.008032
720.439 -0.015492
723.472 0.022227
726.506 0.002158
729.542 -0.003983
732.58 0.040915
735.619 -0.015450
738.659 -0.001726
741.701 0.006588
744.745 0.011301
747.79 0.019717
750.837 -0.018432
753.886 0.012598
756.936 0.012513
759.987 0.009455
763.04 -0.002611
766.095 0.000727
769.151 0.024023
772.209 0.007065
775.268 -0.019163
778.329 0.001888
781.391 0.024034
784.455 0.023214
787.52 0.017523
790.587 -0.006493
793.655 0.041389
796.725 0.009575
799.796 0.001613
802.869 0.026101
805.943 0.017584
809.019 0.052827
812.096 -0.060121
815.174 -0.010576
818.254 0.068187
821.336 0.108905
824.419 0.008914
827.503 0.091553
830.589 0.029734
833.676 0.079082
836.765 0.089945
839.855 0.010269
842.946 0.007859
846.039 0.149095
849.133 0.037860
852.229 -0.087933
855.326 0.066142
858.424 -0.069764
861.524 0.063309
864.625 0.048326
867.728 -0.024526
870.832 0.153385
873.937 0.036560
877.044 -0.151483
880.152 -0.070574
883.261 -0.073937
886.372 -0.025220
889.484 0.141588
892.598 0.086207
895.712 0.054003
898.828 -0.012768
901.946 -0.140804
905.064 0.160594
908.184 -0.066015
911.306 -0.052512
914.428 -0.011133
917.552 -0.075524
920.677 -0.170739
923.804 -0.029977
926.931 0.201510
930.06 -0.203694
933.191 -0.089837
936.322 0.293150
939.455 0.021771
942.589 -0.102023
945.724 0.474207
948.861 3.265290
951.998 -0.039637
955.137 0.113379
958.278 -0.494462
961.419 -0.444045
964.562 0.235820
967.705 0.566828
970.85 -0.279332
973.997 0.204472
977.144 0.067086
980.293 0.149462
983.442 0.049559
986.593 0.129120
989.746 2.123852
992.899 0.091041
996.053 -0.245311
999.209 -3.097257
1002.37 0.645641
1005.52 0.058073
1008.68 2.691965
1011.84 -0.170419
1015 -3.042576
1018.17 3.231724
1021.33 -2.334454
1023.03 -0.127105