File: Auto_Polymerization/Data/UV_VIS_Spectra/MRG-061-F-2_spectra_while_stopped/spectrum_2025-06-19_11-59-18.txt
# Wavelength (nm)	Intensity (a.u.)
197.7802	0.000725
200.4334	-0.000035
203.0892	0.000978
205.7475	0.001105
208.4084	0.000134
211.0718	-0.001027
213.7376	-0.000225
216.4060	-0.000183
219.0769	0.000788
221.7503	-0.001365
224.4262	0.000577
227.1046	0.000134
229.7855	0.000155
232.4688	-0.000056
235.1546	0.001105
237.8429	0.001506
240.5337	0.000028
243.2269	-0.000204
245.9225	0.000746
248.6206	0.000788
251.3212	-0.000120
254.0242	-0.001534
256.7296	0.000535
259.4375	0.000851
262.1477	0.002034
264.8604	-0.000162
267.5755	0.001464
270.2931	-0.000289
273.0130	0.001548
275.7353	-0.000035
278.4600	0.001210
281.1871	0.000155
283.9166	0.000176
286.6484	-0.000563
289.3827	0.000113
292.1193	0.000408
294.8582	0.001189
297.5995	0.000239
300.3432	0.000936
303.0892	0.000387
305.8376	0.000091
308.5883	-0.000014
311.3413	0.000281
314.0967	0.001464
316.8543	-0.000331
319.6143	0.001886
322.3766	-0.000014
325.1412	-0.000056
327.9082	0.000619
330.6774	-0.000204
333.4489	0.001717
336.2227	0.000450
338.9987	-0.000605
341.7771	0.000260
344.5577	0.000281
347.3406	-0.000901
350.1257	0.001527
352.9131	-0.000035
355.7027	0.000408
358.4946	0.000239
361.2888	-0.000331
364.0851	-0.000246
366.8837	0.000767
369.6845	-0.000542
372.4876	0.001316
375.2928	0.000873
378.1003	0.000957
380.9100	0.000007
383.7219	0.000894
386.5359	-0.000479
389.3522	0.000514
392.1706	0.002625
394.9912	0.002224
397.8140	0.002794
400.6390	0.006256
403.4661	0.005939
406.2954	0.010035
409.1269	0.008430
411.9605	0.012547
414.7962	0.013687
417.6341	0.015862
420.4741	0.017170
423.3162	0.019282
426.1605	0.019704
429.0068	0.018986
431.8553	0.021055
434.7059	0.021372
437.5586	0.021604
440.4135	0.021899
443.2703	0.025256
446.1293	0.022343
448.9904	0.023926
451.8535	0.020422
454.7188	0.019197
457.5860	0.018606
460.4554	0.014912
463.3268	0.013223
466.2003	0.013898
469.0758	0.012758
471.9533	0.009043
474.8329	0.009950
477.7145	0.006784
480.5982	0.006910
483.4838	0.003955
486.3715	0.017255
489.2612	0.005411
492.1529	0.005749
495.0466	0.003744
497.9423	0.003891
500.8400	0.003659
503.7397	0.003575
506.6414	0.003511
509.5450	0.004018
512.4506	0.003364
515.3582	0.002941
518.2677	0.002160
521.1792	0.003026
524.0927	0.005264
527.0081	0.004588
529.9254	0.005897
532.8447	0.006404
535.7659	0.009064
538.6890	0.009950
541.6140	0.013455
544.5410	0.013666
547.4699	0.015925
550.4007	0.016727
553.3333	0.020907
556.2679	0.026079
559.2044	0.024369
562.1427	0.033342
565.0829	0.038809
568.0250	0.054537
570.9690	0.105162
573.9149	0.147025
576.8626	0.174934
579.8121	0.200246
582.7635	0.254692
585.7167	0.226572
588.6718	0.193681
591.6288	0.127349
594.5875	0.168896
597.5481	0.149453
600.5105	0.179895
603.4747	0.183315
606.4407	0.164146
609.4085	0.133852
612.3781	0.130284
615.3495	0.126252
618.3227	0.106365
621.2977	0.073221
624.2745	0.087956
627.2530	0.070012
630.2333	0.060469
633.2154	0.046473
636.1992	0.044784
639.1848	0.041596
642.1721	0.032104
645.1612	0.028070
648.1520	0.026513
651.1445	0.028145
654.1388	0.032236
657.1348	0.855966
660.1325	0.060798
663.1319	0.022302
666.1330	0.023234
669.1359	0.022786
672.1404	0.031547
675.1466	0.026079
678.1545	0.028929
681.1641	0.031927
684.1754	0.034883
687.1883	0.043348
690.2029	0.034967
693.2192	0.038767
696.2371	0.029225
699.2567	0.035157
702.2779	0.031230
705.3008	0.023377
708.3253	0.039020
711.3514	0.032328
714.3791	0.035579
717.4085	0.029077
720.4395	0.027219
723.4721	0.027705
726.5063	0.033616
729.5421	0.036656
732.5795	0.042124
735.6185	0.049154
738.6591	0.039675
741.7013	0.033827
744.7450	0.031653
747.7903	0.031019
750.8372	0.038978
753.8856	0.043412
756.9356	0.050378
759.9872	0.061314
763.0403	0.049196
766.0949	0.050758
769.1510	0.049914
772.2087	0.040329
775.2679	0.031252
778.3287	0.025319
781.3909	0.035326
784.4547	0.030660
787.5199	0.030470
790.5867	0.028296
793.6550	0.023398
796.7247	0.021182
799.7959	0.019936
802.8686	0.016896
805.9428	0.019493
809.0185	0.024665
812.0956	0.016157
815.1742	0.016706
818.2542	0.014827
821.3357	0.015862
824.4186	0.012526
827.5029	0.013898
830.5887	0.010563
833.6759	0.008346
836.7646	0.008515
839.8546	0.006826
842.9461	0.005411
846.0390	0.005559
849.1333	0.003934
852.2289	0.006087
855.3260	0.013012
858.4245	0.010520
861.5243	0.008557
864.6255	0.006404
867.7281	0.006509
870.8321	0.006108
873.9374	0.004208
877.0441	0.005179
880.1521	0.009613
883.2615	0.005981
886.3722	0.007269
889.4843	0.004356
892.5977	0.004187
895.7124	0.005285
898.8284	0.005897
901.9458	0.005116
905.0644	0.004335
908.1844	0.003638
911.3057	0.003258
914.4283	0.003828
917.5521	0.004483
920.6773	0.003005
923.8037	0.003913
926.9314	0.002393
930.0604	0.002878
933.1906	0.001485
936.3221	0.001358
939.4549	0.002139
942.5889	0.002160
945.7241	0.001801
948.8606	0.001569
951.9983	0.001506
955.1373	0.001063
958.2775	0.000978
961.4189	0.000577
964.5615	-0.000035
967.7053	-0.000099
970.8504	0.002245
973.9966	0.000303
977.1440	0.000725
980.2926	0.000408
983.4424	-0.000014
986.5934	-0.000162
989.7456	-0.000521
992.8989	0.000767
996.0534	0.000894
999.2090	0.000324
1002.37	0.001991
1005.52	0.000429
1008.68	-0.000605
1011.84	-0.000837
1015	0.000303
1018.17	0.000577
1021.33	-0.000605
1023.03	0.000830