File: Auto_Polymerization/Data/UV_VIS_Spectra/MRG-061-F-2_spectra_while_stopped/spectrum_2025-06-19_11-13-16_absorbance.txt
# Wavelength	Absorbance
197.78 -0.086209
200.433 3.008600
203.089 3.034628
205.748 2.682145
208.408 0.975176
211.072 3.104487
213.738 0.413718
216.406 0.025208
219.077 2.990339
221.75 0.611846
224.426 2.719331
227.105 -0.650016
229.786 -0.047158
232.469 1.959041
235.155 3.406199
237.843 1.851258
240.534 0.000000
243.227 2.710117
245.923 3.026125
248.621 2.727541
251.321 -0.163971
254.024 -0.139254
256.73 0.430219
259.438 2.975891
262.148 2.989895
264.86 2.662758
267.575 0.138475
270.293 0.000000
273.013 2.799341
275.735 0.000000
278.46 -0.039004
281.187 0.000000
283.917 -0.108224
286.648 2.940516
289.383 0.435330
292.119 3.059185
294.858 0.222947
297.599 -0.464486
300.343 0.553608
303.089 2.357935
305.838 0.467125
308.588 0.330071
311.341 3.296446
314.097 2.599883
316.854 0.229261
319.614 0.207194
322.377 1.916379
325.141 0.572599
327.908 3.508395
330.677 3.635484
333.449 0.873479
336.223 0.854662
338.999 0.875219
341.777 0.656726
344.558 3.886829
347.341 3.899164
350.126 3.910571
352.913 1.505922
355.703 0.739080
358.495 1.299129
361.289 4.042142
364.085 0.965717
366.884 4.063634
369.685 0.988371
372.488 4.180183
375.293 1.501994
378.1 1.330021
380.91 4.341138
383.722 4.350442
386.536 4.371972
389.352 0.956338
392.171 0.909101
394.991 0.619776
397.814 0.515706
400.639 0.426443
403.466 0.364932
406.295 0.373711
409.127 0.262630
411.961 0.240820
414.796 0.160725
417.634 0.168917
420.474 0.196207
423.316 0.176457
426.161 0.176439
429.007 0.170489
431.855 0.145803
434.706 0.173370
437.559 0.192753
440.413 0.207082
443.27 0.223661
446.129 0.273414
448.99 0.301280
451.853 0.304781
454.719 0.318892
457.586 0.367502
460.455 0.431973
463.327 0.493134
466.2 0.555073
469.076 0.531908
471.953 0.633465
474.833 0.695657
477.714 0.795131
480.598 0.758846
483.484 0.855533
486.372 0.976403
489.261 0.940295
492.153 1.031737
495.047 1.222951
497.942 1.087525
500.84 1.195985
503.74 1.326207
506.641 1.300803
509.545 1.130503
512.451 1.070382
515.358 1.056987
518.268 1.523772
521.179 1.136501
524.093 0.961724
527.008 0.983220
529.925 0.948815
532.845 0.860643
535.766 0.746124
538.689 0.669255
541.614 0.569863
544.541 0.512302
547.47 0.461282
550.401 0.364833
553.333 0.349153
556.268 0.316045
559.204 0.251728
562.143 0.226353
565.083 0.184082
568.025 0.141494
570.969 0.145285
573.915 0.121143
576.863 0.092585
579.812 0.076484
582.764 0.060325
585.717 0.051243
588.672 0.039102
591.629 0.035372
594.587 0.027142
597.548 0.031655
600.51 0.021426
603.475 0.023719
606.441 0.007823
609.409 0.010043
612.378 0.011623
615.35 0.022138
618.323 0.008494
621.298 -0.003657
624.274 0.009377
627.253 -0.003189
630.233 0.004954
633.215 0.017791
636.199 0.001856
639.185 -0.004681
642.172 0.022384
645.161 0.015266
648.152 0.001673
651.144 0.015956
654.139 0.012616
657.135 0.017173
660.133 -0.049533
663.132 0.027021
666.133 0.014048
669.136 0.013458
672.14 0.018559
675.147 0.010190
678.154 0.021024
681.164 -0.012075
684.175 0.009819
687.188 0.023487
690.203 0.020247
693.219 0.013102
696.237 0.008818
699.257 0.022471
702.278 -0.012281
705.301 -0.001329
708.325 -0.004651
711.351 -0.032574
714.379 0.000128
717.409 -0.021861
720.439 0.023246
723.472 -0.000899
726.506 -0.010371
729.542 0.008233
732.58 0.028132
735.619 0.013066
738.659 -0.015156
741.701 -0.026722
744.745 -0.021074
747.79 -0.005115
750.837 -0.012792
753.886 0.003153
756.936 -0.002644
759.987 0.004970
763.04 -0.004148
766.095 0.015931
769.151 0.017509
772.209 -0.000764
775.268 -0.026018
778.329 -0.005212
781.391 0.036588
784.455 0.032370
787.52 0.005076
790.587 0.012471
793.655 0.021914
796.725 0.015263
799.796 -0.003694
802.869 -0.023874
805.943 -0.028805
809.019 0.044970
812.096 -0.032927
815.174 -0.044996
818.254 0.022885
821.336 0.068883
824.419 0.000899
827.503 0.045353
830.589 -0.006901
833.676 0.018163
836.765 0.045357
839.855 -0.080452
842.946 -0.027578
846.039 0.073578
849.133 0.051692
852.229 0.007710
855.326 0.008755
858.424 -0.012455
861.524 0.071866
864.625 0.003632
867.728 -0.088330
870.832 0.130646
873.937 0.051970
877.044 0.102668
880.152 -0.026460
883.261 -0.059006
886.372 0.061560
889.484 -0.010181
892.598 0.060345
895.712 0.178847
898.828 0.096345
901.946 0.039729
905.064 -0.034750
908.184 -0.081897
911.306 0.160624
914.428 -0.051942
917.552 -0.008746
920.677 -0.047800
923.804 0.070667
926.931 -0.080007
930.06 -0.199667
933.191 0.083908
936.322 0.074194
939.455 0.185017
942.589 0.400983
945.724 0.596108
948.861 0.129839
951.998 0.935389
955.137 2.840106
958.278 -0.410067
961.419 -0.468347
964.562 0.553883
967.705 3.152288
970.85 -0.457495
973.997 2.994757
977.144 0.292200
980.293 3.008600
983.442 -0.050205
986.593 2.820201
989.746 -1.101974
992.899 0.979797
996.053 -0.067706
999.209 0.000000
1002.37 -0.039603
1005.52 0.522689
1008.68 2.691965
1011.84 0.276660
1015 0.000000
1018.17 3.231724
1021.33 0.000000
1023.03 2.812913