File: Auto_Polymerization/Data/UV_VIS_Spectra/MRG-061-F-2_spectra_while_stopped/spectrum_2025-06-19_12-04-25_absorbance.txt
# Wavelength	Absorbance
197.78 2.878522
200.433 3.008600
203.089 0.716565
205.748 2.682145
208.408 -0.244826
211.072 3.104487
213.738 0.171845
216.406 0.583940
219.077 0.253942
221.75 3.183555
224.426 -0.266544
227.105 2.294466
229.786 0.090123
232.469 1.959041
235.155 0.621582
237.843 1.851258
240.534 -3.115943
243.227 0.008549
245.923 -0.045389
248.621 0.409478
251.321 0.271014
254.024 0.006451
256.73 3.025715
259.438 2.975891
262.148 0.288327
264.86 2.662758
267.575 0.177127
270.293 -2.866287
273.013 0.080009
275.735 0.000000
278.46 0.056411
281.187 -3.273233
283.917 2.866287
286.648 2.940516
289.383 0.338420
292.119 0.054863
294.858 0.579272
297.599 2.269513
300.343 0.206737
303.089 2.357935
305.838 0.020138
308.588 3.242293
311.341 2.041173
314.097 2.599883
316.854 0.340189
319.614 0.018161
322.377 0.279461
325.141 3.384174
327.908 1.075426
330.677 2.044419
333.449 0.367657
336.223 0.896860
338.999 3.739731
341.777 3.818094
344.558 1.150433
347.341 3.899164
350.126 0.632504
352.913 0.833148
355.703 1.467701
358.495 0.974119
361.289 1.288559
364.085 1.073986
366.884 1.087284
369.685 1.035571
372.488 4.180183
375.293 1.187133
378.1 1.589564
380.91 1.487439
383.722 2.572291
386.536 4.371972
389.352 1.601042
392.171 1.350906
394.991 0.901868
397.814 0.971010
400.639 0.721207
403.466 0.743346
406.295 0.574966
409.127 0.529210
411.961 0.489206
414.796 0.404582
417.634 0.392260
420.474 0.345966
423.316 0.382365
426.161 0.328462
429.007 0.313623
431.855 0.305624
434.706 0.293512
437.559 0.301646
440.413 0.334762
443.27 0.275471
446.129 0.349587
448.99 0.377390
451.853 0.397975
454.719 0.403607
457.586 0.420680
460.455 0.503176
463.327 0.569975
466.2 0.604726
469.076 0.582490
471.953 0.764242
474.833 0.710634
477.714 0.845215
480.598 0.870974
483.484 0.997460
486.372 1.012838
489.261 1.076234
492.153 1.083897
495.047 1.053304
497.942 1.052391
500.84 1.178837
503.74 1.068321
506.641 1.328626
509.545 1.175672
512.451 1.394234
515.358 1.143916
518.268 1.232131
521.179 1.222619
524.093 0.965780
527.008 0.953728
529.925 0.843556
532.845 0.827980
535.766 0.767501
538.689 0.669162
541.614 0.609322
544.541 0.554086
547.47 0.457564
550.401 0.377005
553.333 0.373865
556.268 0.325461
559.204 0.261481
562.143 0.220424
565.083 0.199378
568.025 0.175831
570.969 0.143601
573.915 0.140494
576.863 0.117300
579.812 0.095708
582.764 0.068670
585.717 0.071662
588.672 0.047175
591.629 0.052075
594.587 0.039859
597.548 0.036165
600.51 0.034688
603.475 0.031321
606.441 0.018099
609.409 0.023570
612.378 0.027185
615.35 0.016249
618.323 0.006703
621.298 0.016930
624.274 0.023711
627.253 0.008087
630.233 -0.009462
633.215 0.011879
636.199 -0.007201
639.185 -0.006644
642.172 0.028802
645.161 0.043689
648.152 0.019993
651.144 0.007957
654.139 0.034475
657.135 0.018802
660.133 -0.036891
663.132 0.058126
666.133 0.028603
669.136 0.061836
672.14 0.028611
675.147 0.018247
678.154 -0.013543
681.164 -0.014103
684.175 -0.010624
687.188 -0.012860
690.203 0.007819
693.219 0.004925
696.237 0.019552
699.257 -0.004921
702.278 -0.012253
705.301 0.018153
708.325 -0.005084
711.351 -0.046950
714.379 -0.006549
717.409 -0.027390
720.439 0.041528
723.472 0.038071
726.506 0.008450
729.542 0.008773
732.58 0.007355
735.619 0.012920
738.659 0.031164
741.701 -0.018665
744.745 0.000997
747.79 0.014971
750.837 -0.016617
753.886 0.030014
756.936 0.002017
759.987 -0.004697
763.04 0.005055
766.095 0.006420
769.151 0.015025
772.209 0.009328
775.268 -0.012459
778.329 -0.001998
781.391 0.026963
784.455 0.027648
787.52 -0.004243
790.587 0.011404
793.655 0.010525
796.725 0.022169
799.796 0.021260
802.869 -0.012300
805.943 0.022582
809.019 0.059285
812.096 -0.049990
815.174 -0.001197
818.254 0.026029
821.336 0.088176
824.419 0.003331
827.503 0.023168
830.589 0.035752
833.676 0.053085
836.765 0.071487
839.855 -0.008910
842.946 0.040339
846.039 0.001028
849.133 0.019091
852.229 -0.032399
855.326 0.050001
858.424 -0.002287
861.524 0.055897
864.625 0.002213
867.728 0.022581
870.832 -0.011700
873.937 -0.003716
877.044 0.050561
880.152 0.146756
883.261 0.051953
886.372 -0.007835
889.484 -0.012339
892.598 -0.004193
895.712 0.046804
898.828 0.035133
901.946 -0.047578
905.064 0.035215
908.184 0.100418
911.306 0.025234
914.428 0.045981
917.552 0.008641
920.677 -0.024934
923.804 0.047602
926.931 -0.193201
930.06 -0.059591
933.191 0.032401
936.322 -0.436655
939.455 0.098191
942.589 -0.029996
945.724 3.472903
948.861 3.265290
951.998 3.245019
955.137 -0.509171
958.278 -0.296148
961.419 -0.146128
964.562 -0.153857
967.705 -0.149176
970.85 -0.678339
973.997 0.444529
977.144 0.236399
980.293 0.484854
983.442 -0.384536
986.593 -0.082345
989.746 -0.800944
992.899 2.866287
996.053 0.370743
999.209 0.000000
1002.37 2.599883
1005.52 -0.032083
1008.68 2.691965
1011.84 0.228704
1015 0.000000
1018.17 0.145009
1021.33 0.000000
1023.03 2.812913