File: Auto_Polymerization/Data/UV_VIS_Spectra/MRG-061-F-2_spectra_while_stopped/spectrum_2025-06-19_10-56-36.txt
# Wavelength (nm)	Intensity (a.u.)
197.7802	0.000614
200.4334	-0.000167
203.0892	0.000128
205.7475	0.000150
208.4084	0.000762
211.0718	0.001015
213.7376	0.001332
216.4060	0.000762
219.0769	-0.000779
221.7503	0.000340
224.4262	-0.000463
227.1046	-0.000146
229.7855	0.001353
232.4688	-0.000040
235.1546	-0.000040
237.8429	0.000276
240.5337	-0.000336
243.2269	-0.000083
245.9225	0.000783
248.6206	0.000107
251.3212	0.001881
254.0242	0.001015
256.7296	-0.000399
259.4375	0.000867
262.1477	0.000044
264.8604	0.000086
267.5755	0.000002
270.2931	0.000783
273.0130	-0.000505
275.7353	-0.000399
278.4600	0.000762
281.1871	-0.000167
283.9166	0.001564
286.6484	-0.001138
289.3827	0.000572
292.1193	0.000150
294.8582	0.000910
297.5995	-0.001434
300.3432	0.001079
303.0892	-0.000357
305.8376	0.000720
308.5883	0.000107
311.3413	0.002029
314.0967	0.000276
316.8543	0.000107
319.6143	0.000002
322.3766	0.000297
325.1412	-0.000611
327.9082	-0.000231
330.6774	-0.000843
333.4489	0.000361
336.2227	-0.000019
338.9987	0.000276
341.7771	-0.000526
344.5577	0.000150
347.3406	0.000445
350.1257	-0.000547
352.9131	0.000656
355.7027	-0.000442
358.4946	-0.000167
361.2888	0.000487
364.0851	0.000741
366.8837	0.000593
369.6845	0.000171
372.4876	0.000487
375.2928	0.000128
378.1003	0.000086
380.9100	0.001691
383.7219	0.000086
386.5359	0.000741
389.3522	0.002219
392.1706	0.004795
394.9912	0.008954
397.8140	0.013579
400.6390	0.016302
403.4661	0.018921
406.2954	0.024368
409.1269	0.023439
411.9605	0.025804
414.7962	0.025276
417.6341	0.026205
420.4741	0.031906
423.3162	0.034989
426.1605	0.028084
429.0068	0.028950
431.8553	0.029563
434.7059	0.028760
437.5586	0.029499
440.4135	0.027008
443.2703	0.033173
446.1293	0.028971
448.9904	0.028253
451.8535	0.026163
454.7188	0.019702
457.5860	0.020166
460.4554	0.020504
463.3268	0.017210
466.2003	0.017485
469.0758	0.012164
471.9533	0.008933
474.8329	0.007709
477.7145	0.007814
480.5982	0.008617
483.4838	0.006674
486.3715	0.018900
489.2612	0.004457
492.1529	0.005027
495.0466	0.004288
497.9423	0.004415
500.8400	0.002641
503.7397	0.004605
506.6414	0.003021
509.5450	0.003612
512.4506	0.003929
515.3582	0.001585
518.2677	0.002916
521.1792	0.001923
524.0927	0.003992
527.0081	0.004478
529.9254	0.005217
532.8447	0.004161
535.7659	0.008025
538.6890	0.007983
541.6140	0.011530
544.5410	0.014106
547.4699	0.017844
550.4007	0.017949
553.3333	0.022193
556.2679	0.025466
559.2044	0.023587
562.1427	0.034292
565.0829	0.040880
568.0250	0.054731
570.9690	0.115289
573.9149	0.154457
576.8626	0.184735
579.8121	0.205217
582.7635	0.268160
585.7167	0.239465
588.6718	0.202007
591.6288	0.131273
594.5875	0.168730
597.5481	0.151733
600.5105	0.180892
603.4747	0.188262
606.4407	0.166661
609.4085	0.134862
612.3781	0.128359
615.3495	0.130132
618.3227	0.104921
621.2977	0.076416
624.2745	0.087079
627.2530	0.068393
630.2333	0.061171
633.2154	0.043393
636.1992	0.043013
639.1848	0.039698
642.1721	0.029784
645.1612	0.026207
648.1520	0.031059
651.1445	0.027569
654.1388	0.033197
657.1348	0.867912
660.1325	0.061865
663.1319	0.022701
666.1330	0.024094
669.1359	0.020568
672.1404	0.033511
675.1466	0.024157
678.1545	0.029837
681.1641	0.031167
684.1754	0.032476
687.1883	0.042992
690.2029	0.032455
693.2192	0.038684
696.2371	0.029098
699.2567	0.034693
702.2779	0.031273
705.3008	0.024242
708.3253	0.037945
711.3514	0.030787
714.3791	0.036720
717.4085	0.027704
720.4395	0.026374
723.4721	0.029056
726.5063	0.033025
729.5421	0.036340
732.5795	0.041556
735.6185	0.047742
738.6591	0.040880
741.7013	0.032139
744.7450	0.028971
747.7903	0.028380
750.8372	0.037248
753.8856	0.040880
756.9356	0.052008
759.9872	0.058068
763.0403	0.049052
766.0949	0.050530
769.1510	0.047827
772.2087	0.041155
775.2679	0.030048
778.3287	0.024664
781.3909	0.033131
784.4547	0.032835
787.5199	0.030618
790.5867	0.025213
793.6550	0.022827
796.7247	0.021961
799.7959	0.021518
802.8686	0.014803
805.9428	0.020230
809.0185	0.022193
812.0956	0.015310
815.1742	0.014867
818.2542	0.014550
821.3357	0.015479
824.4186	0.010200
827.5029	0.013726
830.5887	0.011277
833.6759	0.009208
836.7646	0.007666
839.8546	0.007371
842.9461	0.006526
846.0390	0.004731
849.1333	0.004373
852.2289	0.005344
855.3260	0.011615
858.4245	0.011425
861.5243	0.006991
864.6255	0.005977
867.7281	0.005323
870.8321	0.005555
873.9374	0.005935
877.0441	0.004351
880.1521	0.007075
883.2615	0.005449
886.3722	0.005851
889.4843	0.004161
892.5977	0.006104
895.7124	0.004161
898.8284	0.006442
901.9458	0.002430
905.0644	0.003908
908.1844	0.002578
911.3057	0.003148
914.4283	0.002536
917.5521	0.004014
920.6773	0.004457
923.8037	0.000783
926.9314	0.002514
930.0604	0.001839
933.1906	0.001332
936.3221	0.001733
939.4549	0.001606
942.5889	0.001923
945.7241	0.002198
948.8606	0.000234
951.9983	0.001944
955.1373	0.000825
958.2775	0.001480
961.4189	0.000889
964.5615	0.001691
967.7053	0.001311
970.8504	0.000340
973.9966	0.000086
977.1440	0.001374
980.2926	0.000867
983.4424	0.001205
986.5934	-0.000252
989.7456	0.001248
992.8989	0.000804
996.0534	-0.000927
999.2090	-0.000611
1002.37	0.001543
1005.52	0.001564
1008.68	-0.000421
1011.84	0.000931
1015	0.000002
1018.17	-0.000252
1021.33	-0.000653
1023.03	0.000509