File: Auto_Polymerization/Data/UV_VIS_Spectra/MRG-061-F-2_spectra_while_stopped/spectrum_2025-06-19_12-19-45.txt
# Wavelength (nm)	Intensity (a.u.)
197.7802	0.000164
200.4334	0.001493
203.0892	0.000628
205.7475	-0.001757
208.4084	-0.000301
211.0718	0.001219
213.7376	0.001683
216.4060	0.001367
219.0769	0.001050
221.7503	0.001472
224.4262	0.001873
227.1046	0.001282
229.7855	0.000607
232.4688	0.000628
235.1546	0.001979
237.8429	0.000839
240.5337	0.001029
243.2269	0.001303
245.9225	0.001345
248.6206	0.001535
251.3212	0.001514
254.0242	0.000354
256.7296	0.000079
259.4375	0.001177
262.1477	0.000839
264.8604	0.000058
267.5755	0.001071
270.2931	-0.000153
273.0130	0.002760
275.7353	0.001134
278.4600	0.001198
281.1871	0.000755
283.9166	0.001409
286.6484	0.000966
289.3827	0.000417
292.1193	0.000522
294.8582	0.001662
297.5995	-0.000301
300.3432	-0.000871
303.0892	0.000586
305.8376	0.001704
308.5883	0.001029
311.3413	-0.000005
314.0967	0.000501
316.8543	0.000860
319.6143	0.002274
322.3766	0.000881
325.1412	0.000206
327.9082	0.000121
330.6774	0.001261
333.4489	0.001050
336.2227	0.001282
338.9987	0.002443
341.7771	0.001409
344.5577	0.001134
347.3406	-0.000153
350.1257	-0.000491
352.9131	-0.000828
355.7027	0.000860
358.4946	0.000354
361.2888	0.001303
364.0851	0.000396
366.8837	0.000586
369.6845	0.000206
372.4876	0.002485
375.2928	0.002126
378.1003	0.001409
380.9100	-0.000026
383.7219	0.000269
386.5359	-0.000237
389.3522	0.001261
392.1706	0.001873
394.9912	0.002443
397.8140	0.004026
400.6390	0.004955
403.4661	0.006200
406.2954	0.008458
409.1269	0.009556
411.9605	0.010885
414.7962	0.012004
417.6341	0.012954
420.4741	0.015022
423.3162	0.017090
426.1605	0.016774
429.0068	0.019496
431.8553	0.019792
434.7059	0.020298
437.5586	0.021438
440.4135	0.020151
443.2703	0.026947
446.1293	0.023549
448.9904	0.022240
451.8535	0.021100
454.7188	0.017238
457.5860	0.018357
460.4554	0.018019
463.3268	0.014726
466.2003	0.015697
469.0758	0.011603
471.9533	0.007740
474.8329	0.007551
477.7145	0.008141
480.5982	0.006664
483.4838	0.007128
486.3715	0.017639
489.2612	0.003963
492.1529	0.005208
495.0466	0.003562
497.9423	0.005313
500.8400	0.004469
503.7397	0.005778
506.6414	0.003224
509.5450	0.003224
512.4506	0.002337
515.3582	0.004891
518.2677	0.004638
521.1792	0.002380
524.0927	0.003266
527.0081	0.004026
529.9254	0.005947
532.8447	0.006411
535.7659	0.008078
538.6890	0.009513
541.6140	0.012679
544.5410	0.014135
547.4699	0.014853
550.4007	0.017808
553.3333	0.022557
556.2679	0.027369
559.2044	0.025068
562.1427	0.032054
565.0829	0.038006
568.0250	0.052611
570.9690	0.108393
573.9149	0.148409
576.8626	0.171541
579.8121	0.195475
582.7635	0.254149
585.7167	0.228948
588.6718	0.194166
591.6288	0.129879
594.5875	0.168122
597.5481	0.150794
600.5105	0.181777
603.4747	0.184458
606.4407	0.162445
609.4085	0.128845
612.3781	0.124856
615.3495	0.123800
618.3227	0.109638
621.2977	0.073083
624.2745	0.087794
627.2530	0.068060
630.2333	0.061961
633.2154	0.045899
636.1992	0.043050
639.1848	0.042333
642.1721	0.033381
645.1612	0.025919
648.1520	0.030226
651.1445	0.028018
654.1388	0.033537
657.1348	0.862694
660.1325	0.060919
663.1319	0.020958
666.1330	0.024160
669.1359	0.021522
672.1404	0.031189
675.1466	0.027115
678.1545	0.029289
681.1641	0.034650
684.1754	0.033131
687.1883	0.045435
690.2029	0.035030
693.2192	0.038365
696.2371	0.030556
699.2567	0.035959
702.2779	0.027284
705.3008	0.024899
708.3253	0.038344
711.3514	0.031505
714.3791	0.033152
717.4085	0.029078
720.4395	0.028635
723.4721	0.027896
726.5063	0.036845
729.5421	0.037352
732.5795	0.041763
735.6185	0.048284
738.6591	0.039863
741.7013	0.033152
744.7450	0.028783
747.7903	0.030535
750.8372	0.039547
753.8856	0.043768
756.9356	0.051767
759.9872	0.061475
763.0403	0.047356
766.0949	0.050205
769.1510	0.048939
772.2087	0.042734
775.2679	0.030091
778.3287	0.027031
781.3909	0.034460
784.4547	0.032054
787.5199	0.029880
790.5867	0.025744
793.6550	0.022915
796.7247	0.023021
799.7959	0.022261
802.8686	0.015845
805.9428	0.019138
809.0185	0.023591
812.0956	0.016436
815.1742	0.016647
818.2542	0.014325
821.3357	0.014283
824.4186	0.011328
827.5029	0.013502
830.5887	0.009935
833.6759	0.010548
836.7646	0.007698
839.8546	0.007213
842.9461	0.005334
846.0390	0.005060
849.1333	0.003604
852.2289	0.007318
855.3260	0.011708
858.4245	0.010949
861.5243	0.006749
864.6255	0.006559
867.7281	0.004659
870.8321	0.005862
873.9374	0.005968
877.0441	0.006200
880.1521	0.008458
883.2615	0.006601
886.3722	0.007445
889.4843	0.004743
892.5977	0.004955
895.7124	0.005039
898.8284	0.003941
901.9458	0.004321
905.0644	0.004976
908.1844	0.004997
911.3057	0.006242
914.4283	0.003414
917.5521	0.002696
920.6773	0.003963
923.8037	0.002147
926.9314	0.001852
930.0604	0.002696
933.1906	0.002211
936.3221	0.001979
939.4549	0.004216
942.5889	0.000480
945.7241	0.001472
948.8606	0.000944
951.9983	0.002380
955.1373	0.002000
958.2775	0.000755
961.4189	0.001535
964.5615	0.000396
967.7053	0.000100
970.8504	-0.000026
973.9966	0.000543
977.1440	0.001451
980.2926	0.002274
983.4424	0.000797
986.5934	0.000311
989.7456	0.002253
992.8989	-0.000744
996.0534	0.001451
999.2090	-0.000026
1002.37	0.000628
1005.52	0.001620
1008.68	-0.000533
1011.84	0.000396
1015	0.000227
1018.17	0.000797
1021.33	-0.000913
1023.03	0.001852