File: Auto_Polymerization/Data/UV_VIS_Spectra/MRG-061-F-2_spectra_while_stopped/spectrum_2025-06-19_12-09-32.txt
# Wavelength (nm)	Intensity (a.u.)
197.7802	-0.000206
200.4334	0.001441
203.0892	-0.001346
205.7475	0.002201
208.4084	0.001631
211.0718	0.001335
213.7376	0.000829
216.4060	0.001589
219.0769	0.000744
221.7503	0.000047
224.4262	0.001019
227.1046	-0.000396
229.7855	-0.000142
232.4688	-0.000839
235.1546	0.001187
237.8429	-0.000438
240.5337	0.001525
243.2269	-0.000902
245.9225	0.000090
248.6206	0.000026
251.3212	0.000132
254.0242	-0.000797
256.7296	0.001103
259.4375	-0.000438
262.1477	0.001124
264.8604	0.000596
267.5755	-0.000058
270.2931	-0.000396
273.0130	0.000702
275.7353	0.000259
278.4600	-0.000142
281.1871	0.001145
283.9166	0.001567
286.6484	0.000153
289.3827	0.000259
292.1193	0.000660
294.8582	-0.000501
297.5995	0.001187
300.3432	0.000554
303.0892	0.001462
305.8376	0.000427
308.5883	0.001082
311.3413	0.002011
314.0967	0.000512
316.8543	-0.000332
319.6143	0.000280
322.3766	0.000765
325.1412	-0.000881
327.9082	0.000639
330.6774	0.000174
333.4489	0.000744
336.2227	0.000702
338.9987	0.000554
341.7771	0.001061
344.5577	0.000470
347.3406	0.000639
350.1257	-0.000206
352.9131	0.000997
355.7027	0.001715
358.4946	0.000301
361.2888	0.002327
364.0851	0.000259
366.8837	0.000364
369.6845	0.000427
372.4876	0.001947
375.2928	-0.000776
378.1003	0.001462
380.9100	0.000934
383.7219	-0.000058
386.5359	0.000427
389.3522	0.000427
392.1706	0.001990
394.9912	0.002686
397.8140	0.003847
400.6390	0.005177
403.4661	0.007436
406.2954	0.008787
409.1269	0.010856
411.9605	0.011320
414.7962	0.011806
417.6341	0.015775
420.4741	0.015901
423.3162	0.018582
426.1605	0.018540
429.0068	0.018941
431.8553	0.020714
434.7059	0.020250
437.5586	0.021939
440.4135	0.023016
443.2703	0.023079
446.1293	0.023522
448.9904	0.022847
451.8535	0.020757
454.7188	0.018266
457.5860	0.018625
460.4554	0.016894
463.3268	0.014888
466.2003	0.014065
469.0758	0.010180
471.9533	0.009399
474.8329	0.009442
477.7145	0.007689
480.5982	0.008112
483.4838	0.005811
486.3715	0.016640
489.2612	0.005642
492.1529	0.004966
495.0466	0.003742
497.9423	0.003657
500.8400	0.002918
503.7397	0.004586
506.6414	0.003742
509.5450	0.004270
512.4506	0.002517
515.3582	0.003108
518.2677	0.002918
521.1792	0.002370
524.0927	0.004227
527.0081	0.005557
529.9254	0.004776
532.8447	0.006444
535.7659	0.008302
538.6890	0.008998
541.6140	0.011743
544.5410	0.014782
547.4699	0.015922
550.4007	0.019701
553.3333	0.022403
556.2679	0.026140
559.2044	0.026351
562.1427	0.033655
565.0829	0.036611
568.0250	0.053182
570.9690	0.110095
573.9149	0.147144
576.8626	0.172181
579.8121	0.200680
582.7635	0.252780
585.7167	0.223458
588.6718	0.188795
591.6288	0.128630
594.5875	0.167051
597.5481	0.147777
600.5105	0.180118
603.4747	0.186029
606.4407	0.164117
609.4085	0.130298
612.3781	0.132050
615.3495	0.129010
618.3227	0.107351
621.2977	0.075897
624.2745	0.087149
627.2530	0.071084
630.2333	0.059473
633.2154	0.045308
636.1992	0.044041
639.1848	0.040389
642.1721	0.030973
645.1612	0.027708
648.1520	0.031166
651.1445	0.028568
654.1388	0.034835
657.1348	0.858273
660.1325	0.062387
663.1319	0.022026
666.1330	0.025352
669.1359	0.019575
672.1404	0.031671
675.1466	0.026076
678.1545	0.029686
681.1641	0.035998
684.1754	0.032367
687.1883	0.043682
690.2029	0.036041
693.2192	0.038954
696.2371	0.029180
699.2567	0.037729
702.2779	0.031671
705.3008	0.024050
708.3253	0.037814
711.3514	0.033338
714.3791	0.036336
717.4085	0.026076
720.4395	0.027512
723.4721	0.027301
726.5063	0.034267
729.5421	0.036104
732.5795	0.042078
735.6185	0.050311
738.6591	0.040980
741.7013	0.035872
744.7450	0.029834
747.7903	0.032156
750.8372	0.039587
753.8856	0.042057
756.9356	0.051219
759.9872	0.058861
763.0403	0.051683
766.0949	0.050100
769.1510	0.048960
772.2087	0.041318
775.2679	0.030172
778.3287	0.026055
781.3909	0.035661
784.4547	0.031249
787.5199	0.027934
790.5867	0.026055
793.6550	0.023670
796.7247	0.021854
799.7959	0.021981
802.8686	0.017970
805.9428	0.019870
809.0185	0.022868
812.0956	0.018308
815.1742	0.017210
818.2542	0.014930
821.3357	0.015500
824.4186	0.011743
827.5029	0.013537
830.5887	0.009969
833.6759	0.009019
836.7646	0.008175
839.8546	0.009463
842.9461	0.005621
846.0390	0.004924
849.1333	0.003890
852.2289	0.006571
855.3260	0.012418
858.4245	0.011173
861.5243	0.006697
864.6255	0.006233
867.7281	0.006507
870.8321	0.005367
873.9374	0.005262
877.0441	0.007035
880.1521	0.009273
883.2615	0.007563
886.3722	0.007331
889.4843	0.005874
892.5977	0.005135
895.7124	0.005642
898.8284	0.005431
901.9458	0.004628
905.0644	0.006296
908.1844	0.005937
911.3057	0.003721
914.4283	0.003362
917.5521	0.005600
920.6773	0.003277
923.8037	0.003383
926.9314	0.001356
930.0604	0.001821
933.1906	0.002222
936.3221	0.002686
939.4549	0.002306
942.5889	0.002053
945.7241	0.000744
948.8606	-0.000501
951.9983	0.001546
955.1373	0.001631
958.2775	0.002834
961.4189	-0.000501
964.5615	-0.000164
967.7053	0.000090
970.8504	0.001736
973.9966	0.002306
977.1440	0.002180
980.2926	0.000427
983.4424	0.002011
986.5934	-0.000902
989.7456	0.001145
992.8989	0.001082
996.0534	0.000385
999.2090	-0.000459
1002.37	0.001082
1005.52	0.000702
1008.68	0.000850
1011.84	0.001926
1015	0.000575
1018.17	0.000723
1021.33	0.000237
1023.03	0.000280